# XDI/1.0 Athena/0.9.26
# Element.edge:                  K
# Element.symbol:                Fe
# Column.1:                      energy eV
# Column.2:                      norm
# Column.3:                      nbkg
# Column.4:                      flat
# Column.5:                      fbkg
# Column.6:                      nder
# Column.7:                      nsec
# Athena.e0:                     7120.140
# Athena.eshift:                 -0.714
# Athena.rbkg:                   1
# Athena.importance:             1
# Athena.standard:               None
# Athena.bkg_kweight:            2
# Athena.edge_step:              0.2768907
# Athena.fixed_step:             no
# Athena.pre_edge_range:         -215 -20
# Athena.pre_edge_line:          9.909324 - 0.00104947 * E
# Athena.normalization_range:    63.870 382.040
# Athena.post_edge_polynomial:   25.838577 - 0.00535453 * E + 2.95884084e-007 * E^2 + 0 * E^3
# Athena.spline_range_energy:    0.000 791.795
# Athena.clamps:                 0 24
# Athena.spline_range_k:         0.000 14.416
# Athena.kweight:                2
# Athena.window:                 hanning
# Athena.phase_correction:       no
# Athena.k_range:                3 9
# Athena.dk:                     1
# Athena.r_range:                1 3
# Athena.dr:                     0.0
# Athena.window:                 hanning
# Athena.plot_multiplier:        1
# Athena.y_offset:               0
# ///
#------------------------
#   e         norm       nbkg       flat       fbkg       nder       nsec
  6860.2490      -0.60440686E-02  -0.60440694E-02  -0.60440694E-02  -0.60440694E-02   0.42056969E-02  -0.30158729E-03
  6870.2190       0.35886729E-01   0.35886734E-01   0.35886734E-01   0.35886734E-01   0.11988716E-02  -0.26448765E-03
  6880.2090       0.17885408E-01   0.17885410E-01   0.17885410E-01   0.17885410E-01  -0.10734766E-02  -0.69068253E-04
  6890.2390       0.14395728E-01   0.14395730E-01   0.14395730E-01   0.14395730E-01  -0.18387487E-03   0.42288573E-04
  6900.2990       0.14191361E-01   0.14191363E-01   0.14191363E-01   0.14191363E-01  -0.22389914E-03  -0.13223525E-04
  6910.2790       0.99087894E-02   0.99087906E-02   0.99087906E-02   0.99087906E-02  -0.44887431E-03  -0.41828150E-05
  6920.2790       0.52228527E-02   0.52228534E-02   0.52228534E-02   0.52228534E-02  -0.30747179E-03   0.11298803E-04
  6930.2090       0.37808767E-02   0.37808772E-02   0.37808772E-02   0.37808772E-02  -0.22368916E-03   0.47472350E-05
  6940.2690       0.75130631E-03   0.75130641E-03   0.75130641E-03   0.75130641E-03  -0.21257456E-03   0.82097507E-05
  6950.2590      -0.48124320E-03  -0.48124326E-03  -0.48124326E-03  -0.48124326E-03  -0.59083662E-04   0.64893409E-05
  6960.2690      -0.43036693E-03  -0.43036699E-03  -0.43036699E-03  -0.43036699E-03  -0.82787740E-04  -0.13023291E-04
  6970.3190      -0.21419653E-02  -0.21419655E-02  -0.21419655E-02  -0.21419655E-02  -0.32033087E-03  -0.77159155E-05
  6980.2790      -0.68401877E-02  -0.68401885E-02  -0.68401885E-02  -0.68401885E-02  -0.23718321E-03   0.19587507E-04
  6990.2590      -0.68713985E-02  -0.68713993E-02  -0.68713993E-02  -0.68713993E-02   0.70244009E-04   0.18393248E-04
  7000.2790      -0.54353075E-02  -0.54353082E-02  -0.54353082E-02  -0.54353082E-02   0.13068175E-03  -0.13347057E-04
  7010.2190      -0.42629908E-02  -0.42629913E-02  -0.42629913E-02  -0.42629913E-02  -0.19616324E-03  -0.60339498E-05
  7020.2990      -0.93624956E-02  -0.93624968E-02  -0.93624968E-02  -0.93624968E-02   0.98820722E-05   0.27881750E-04
  7030.2890      -0.40646576E-02  -0.40646581E-02  -0.40646581E-02  -0.40646581E-02   0.36342348E-03  -0.14254654E-04
  7040.3090      -0.20903917E-02  -0.20903919E-02  -0.20903919E-02  -0.20903919E-02  -0.27535355E-03  -0.21751249E-04
  7050.2490      -0.95607145E-02  -0.95607157E-02  -0.95607157E-02  -0.95607157E-02  -0.70731440E-04   0.43717734E-04
  7060.2090      -0.34979473E-02  -0.34979478E-02  -0.34979478E-02  -0.34979478E-02   0.59462935E-03   0.24271307E-04
  7061.2690      -0.30078991E-02  -0.30078995E-02  -0.30078995E-02  -0.30078995E-02   0.19673836E-03  -0.60339534E-03
  7061.8590      -0.31733290E-02  -0.31733294E-02  -0.31733294E-02  -0.31733294E-02  -0.40097296E-03   0.10984396E-02
  7062.4390      -0.34770375E-02  -0.34770379E-02  -0.34770379E-02  -0.34770379E-02   0.14819128E-02  -0.94265759E-04
  7063.0290      -0.14394911E-02  -0.14394913E-02  -0.14394913E-02  -0.14394913E-02  -0.51126390E-03  -0.15923368E-02
  7063.6190      -0.40803289E-02  -0.40803294E-02  -0.40803294E-02  -0.40803294E-02  -0.39704468E-03   0.18112994E-02
  7064.2090      -0.19080038E-02  -0.19080041E-02  -0.19080041E-02  -0.19080041E-02   0.16260694E-02  -0.10977871E-02
  7064.7990      -0.21615669E-02  -0.21615672E-02  -0.21615672E-02  -0.21615672E-02  -0.16924334E-02  -0.69360348E-03
  7065.3790      -0.38881509E-02  -0.38881514E-02  -0.38881514E-02  -0.38881514E-02   0.81455338E-03   0.18154829E-02
  7065.9690      -0.12085395E-02  -0.12085396E-02  -0.12085396E-02  -0.12085396E-02   0.43168158E-03  -0.19501903E-02
  7066.5590      -0.33787667E-02  -0.33787671E-02  -0.33787671E-02  -0.33787671E-02  -0.14866711E-02  -0.35122991E-03
  7067.1490      -0.29628114E-02  -0.29628118E-02  -0.29628118E-02  -0.29628118E-02   0.17230291E-04   0.97348336E-03
  7067.7390      -0.33584349E-02  -0.33584353E-02  -0.33584354E-02  -0.33584353E-02  -0.33796076E-03   0.69725529E-03
  7068.3190      -0.33582255E-02  -0.33582259E-02  -0.33582259E-02  -0.33582259E-02   0.83301897E-03   0.48883165E-03
  7068.9090      -0.23838027E-02  -0.23838030E-02  -0.23838030E-02  -0.23838030E-02   0.23397227E-03  -0.17286570E-02
  7069.4990      -0.30821382E-02  -0.30821386E-02  -0.30821386E-02  -0.30821386E-02  -0.12067963E-02  -0.91504402E-03
  7070.0890      -0.38078223E-02  -0.38078228E-02  -0.38078228E-02  -0.38078228E-02  -0.84577968E-03   0.29498610E-02
  7070.6790      -0.40801582E-02  -0.40801588E-02  -0.40801588E-02  -0.40801588E-02   0.22740398E-02   0.26572546E-02
  7071.2690      -0.11244554E-02  -0.11244555E-02  -0.11244555E-02  -0.11244555E-02   0.22897807E-02  -0.30464354E-02
  7071.8590      -0.13782170E-02  -0.13782172E-02  -0.13782172E-02  -0.13782172E-02  -0.13207540E-02  -0.29472999E-02
  7072.4490      -0.26829451E-02  -0.26829454E-02  -0.26829454E-02  -0.26829454E-02  -0.11880332E-02   0.13155958E-02
  7073.0290      -0.27682158E-02  -0.27682162E-02  -0.27682162E-02  -0.27682162E-02   0.21849303E-03   0.10506383E-02
  7073.6190      -0.24273083E-02  -0.24273086E-02  -0.24273086E-02  -0.24273086E-02   0.41213663E-04   0.28215486E-03
  7074.2090      -0.27195837E-02  -0.27195840E-02  -0.27195840E-02  -0.27195840E-02   0.55143576E-03   0.15118347E-02
  7074.7990      -0.17766141E-02  -0.17766143E-02  -0.17766143E-02  -0.17766143E-02   0.18251786E-02   0.85993591E-03
  7075.3890      -0.56587298E-03  -0.56587305E-03  -0.56587306E-03  -0.56587305E-03   0.15661601E-02  -0.24498790E-02
  7075.9790       0.71454896E-04   0.71454907E-04   0.71454905E-04   0.71454907E-04  -0.10656786E-02  -0.15455765E-02
  7076.5690      -0.18233737E-02  -0.18233740E-02  -0.18233740E-02  -0.18233740E-02  -0.25762015E-03   0.21284597E-02
  7077.1590      -0.23253688E-03  -0.23253691E-03  -0.23253691E-03  -0.23253691E-03   0.14459039E-02   0.23558760E-02
  7077.7490      -0.11720716E-03  -0.11720717E-03  -0.11720718E-03  -0.11720717E-03   0.25223136E-02  -0.10779161E-02
  7078.3390       0.27437931E-02   0.27437935E-02   0.27437935E-02   0.27437935E-02   0.17396286E-03  -0.45920721E-02
  7078.9290       0.88069011E-04   0.88069025E-04   0.88069023E-04   0.88069025E-04  -0.28963316E-02  -0.19807754E-02
  7079.5190      -0.67387815E-03  -0.67387824E-03  -0.67387824E-03  -0.67387824E-03  -0.21633521E-02   0.67855417E-03
  7080.1090      -0.24646865E-02  -0.24646868E-02  -0.24646868E-02  -0.24646868E-02  -0.20956377E-02   0.25271596E-02
  7080.6990      -0.31467306E-02  -0.31467310E-02  -0.31467310E-02  -0.31467310E-02   0.81869616E-03   0.38966099E-02
  7081.2890      -0.14986250E-02  -0.14986252E-02  -0.14986252E-02  -0.14986252E-02   0.25023621E-02   0.49453972E-03
  7081.8890      -0.16891971E-03  -0.16891973E-03  -0.16891973E-03  -0.16891973E-03   0.14071984E-02  -0.22896243E-02
  7082.4790       0.17594110E-03   0.17594113E-03   0.17594113E-03   0.17594113E-03  -0.22229085E-03  -0.51391252E-03
  7083.0690      -0.43122291E-03  -0.43122296E-03  -0.43122296E-03  -0.43122296E-03   0.80078166E-03   0.72702673E-03
  7083.6590       0.11208635E-02   0.11208636E-02   0.11208636E-02   0.11208636E-02   0.63560069E-03  -0.68844768E-03
  7084.2490       0.31878591E-03   0.31878595E-03   0.31878595E-03   0.31878595E-03  -0.11586608E-04   0.14206758E-02
  7084.8390       0.11071913E-02   0.11071914E-02   0.11071914E-02   0.11071914E-02   0.23119981E-02   0.62864338E-03
  7085.4290       0.30469437E-02   0.30469441E-02   0.30469441E-02   0.30469441E-02   0.73021258E-03  -0.35164426E-02
  7086.0190       0.19688421E-02   0.19688424E-02   0.19688424E-02   0.19688424E-02  -0.18374042E-02  -0.86531363E-03
  7086.6090       0.87880677E-03   0.87880689E-03   0.87880688E-03   0.87880689E-03  -0.29085750E-03   0.26718217E-02
  7087.2090       0.16227217E-02   0.16227219E-02   0.16227219E-02   0.16227219E-02   0.13420636E-02  -0.30325774E-03
  7087.7990       0.24758625E-02   0.24758628E-02   0.24758628E-02   0.24758628E-02  -0.65173422E-03  -0.12954568E-02
  7088.3890       0.85367530E-03   0.85367541E-03   0.85367541E-03   0.85367541E-03  -0.18657539E-03   0.29341530E-02
  7088.9790       0.22557035E-02   0.22557038E-02   0.22557038E-02   0.22557038E-02   0.28105663E-02   0.22221409E-02
  7089.5690       0.41701435E-02   0.41701440E-02   0.41701440E-02   0.41701440E-02   0.24355508E-02  -0.37217177E-02
  7090.1690       0.51540090E-02   0.51540097E-02   0.51540097E-02   0.51540097E-02  -0.16182777E-02  -0.44824731E-02
  7090.7590       0.22443930E-02   0.22443933E-02   0.22443933E-02   0.22443933E-02  -0.28985921E-02   0.74364359E-03
  7091.3490       0.17336703E-02   0.17336705E-02   0.17336705E-02   0.17336705E-02  -0.74077830E-03   0.19709286E-02
  7091.9390       0.13702746E-02   0.13702748E-02   0.13702748E-02   0.13702748E-02  -0.57289641E-03   0.18155466E-02
  7092.5390       0.10519236E-02   0.10519237E-02   0.10519237E-02   0.10519237E-02   0.14197221E-02   0.24337785E-02
  7093.1290       0.30597439E-02   0.30597443E-02   0.30597443E-02   0.30597443E-02   0.23233000E-02  -0.11623833E-02
  7093.7190       0.37934176E-02   0.37934181E-02   0.37934181E-02   0.37934181E-02   0.48109828E-04  -0.17185179E-02
  7094.3090       0.31165135E-02   0.31165139E-02   0.31165139E-02   0.31165139E-02   0.29544884E-03   0.79142379E-03
  7094.9090       0.41450017E-02   0.41450022E-02   0.41450022E-02   0.41450022E-02   0.98990413E-03   0.18485693E-02
  7095.4990       0.42944994E-02   0.42945000E-02   0.42945000E-02   0.42945000E-02   0.24952463E-02  -0.18027319E-02
  7096.0890       0.70893924E-02   0.70893933E-02   0.70893933E-02   0.70893933E-02  -0.11373195E-02  -0.27926401E-02
  7096.6890       0.29410892E-02   0.29410896E-02   0.29410896E-02   0.29410896E-02  -0.82799535E-03   0.28045218E-02
  7097.2790       0.61040779E-02   0.61040787E-02   0.61040787E-02   0.61040787E-02   0.22000614E-02  -0.17395398E-02
  7097.8690       0.55371617E-02   0.55371624E-02   0.55371624E-02   0.55371624E-02  -0.28806523E-02  -0.79419642E-03
  7098.4690       0.26761017E-02   0.26761020E-02   0.26761020E-02   0.26761020E-02   0.12549677E-02   0.46854460E-02
  7099.0590       0.70305733E-02   0.70305742E-02   0.70305742E-02   0.70305742E-02   0.26950284E-02  -0.49885815E-03
  7099.6590       0.58831855E-02   0.58831863E-02   0.58831863E-02   0.58831863E-02   0.66132648E-03  -0.10965396E-02
  7100.2490       0.78175518E-02   0.78175528E-02   0.78175528E-02   0.78175528E-02   0.13901463E-02  -0.14600481E-02
  7100.8390       0.75235582E-02   0.75235591E-02   0.75235591E-02   0.75235591E-02  -0.10615302E-02  -0.79588663E-04
  7101.4390       0.65543308E-02   0.65543316E-02   0.65543316E-02   0.65543316E-02   0.12954358E-02   0.18360746E-02
  7102.0290       0.90651268E-02   0.90651280E-02   0.90651279E-02   0.90651280E-02   0.11233986E-02  -0.17052881E-02
  7102.6290       0.78911751E-02   0.78911761E-02   0.78911761E-02   0.78911761E-02  -0.73385708E-03   0.27736659E-02
  7103.2190       0.81918369E-02   0.81918379E-02   0.81918379E-02   0.81918379E-02   0.44240610E-02   0.38947597E-02
  7103.8190       0.13155808E-01   0.13155809E-01   0.13155809E-01   0.13155809E-01   0.39009069E-02  -0.46470512E-02
  7104.4090       0.12833916E-01   0.12833918E-01   0.12833918E-01   0.12833918E-01  -0.11059300E-02  -0.34689186E-02
  7104.9990       0.11850810E-01   0.11850812E-01   0.11850812E-01   0.11850812E-01  -0.19241704E-03   0.10991249E-02
  7105.5990       0.12604940E-01   0.12604941E-01   0.12604941E-01   0.12604941E-01   0.20202861E-03   0.12877118E-02
  7106.1890       0.12091224E-01   0.12091226E-01   0.12091226E-01   0.12091226E-01   0.13399600E-02   0.37064255E-02
  7106.7890       0.14199492E-01   0.14199494E-01   0.14199494E-01   0.14199494E-01   0.46126749E-02   0.14857086E-02
  7107.3790       0.17580307E-01   0.17580310E-01   0.17580310E-01   0.17580310E-01   0.31079532E-02  -0.53266883E-03
  7107.9790       0.17897957E-01   0.17897959E-01   0.17897959E-01   0.17897959E-01   0.39787990E-02  -0.32750925E-03
  7108.5790       0.22354866E-01   0.22354869E-01   0.22354869E-01   0.22354869E-01   0.27149421E-02  -0.12413076E-02
  7109.1690       0.21128738E-01   0.21128740E-01   0.21128740E-01   0.21128740E-01   0.25016430E-02   0.44874298E-02
  7109.7690       0.25331821E-01   0.25331825E-01   0.25331825E-01   0.25331825E-01   0.80549836E-02   0.10583904E-01
  7110.3590       0.30714168E-01   0.30714172E-01   0.30714172E-01   0.30714172E-01   0.15096489E-01   0.15032527E-01
  7110.9590       0.43296643E-01   0.43296648E-01   0.43296648E-01   0.43296648E-01   0.25943691E-01   0.78745819E-02
  7111.5490       0.61587160E-01   0.61587168E-01   0.61587168E-01   0.61587168E-01   0.24467241E-01  -0.14764045E-01
  7112.1490       0.72412660E-01   0.72412669E-01   0.72412669E-01   0.72412669E-01   0.83744774E-02  -0.23617320E-01
  7112.7490       0.71636533E-01   0.71636542E-01   0.71636542E-01   0.71636542E-01  -0.38735429E-02  -0.10945945E-01
  7113.3390       0.67803144E-01   0.67803152E-01   0.67803152E-01   0.67803152E-01  -0.46511969E-02   0.29523372E-02
  7113.9390       0.66101609E-01   0.66101617E-01   0.66101617E-01   0.66101617E-01  -0.36026160E-03   0.54341480E-02
  7114.5390       0.67370830E-01   0.67370838E-01   0.67370838E-01   0.67370838E-01   0.18697807E-02   0.94079604E-02
  7115.1290       0.68326648E-01   0.68326656E-01   0.68326656E-01   0.68326656E-01   0.10835211E-01   0.21701626E-01
  7115.7290       0.80264731E-01   0.80264741E-01   0.80264741E-01   0.80264741E-01   0.27694716E-01   0.32476715E-01
  7116.3290       0.10156031       0.10156032       0.10156032       0.10156032       0.49807269E-01   0.44529357E-01
  7116.9190       0.13953538       0.13953540       0.13953540       0.13953540       0.80684651E-01   0.56706658E-01
  7117.5190       0.19757504       0.19757507       0.19757507       0.19757507       0.11728819       0.66033618E-01
  7118.1190       0.28028121       0.28028125       0.28028125       0.28028125       0.15992499       0.69950308E-01
  7118.7090       0.38788578       0.38788583       0.38788583       0.38788583       0.20052906       0.35188078E-01
  7119.3090       0.51891079       0.51891086       0.51891086       0.51891086       0.20179880      -0.29143406E-01
  7119.9090       0.63004435       0.63004443       0.62996784       0.62996784       0.16555697      -0.64440877E-01
  7120.5090       0.71757916        1.7457491       0.71770103        1.7458709       0.12446975      -0.63601855E-01
  7121.0990       0.77816335        1.6803472       0.77847955        1.6806633       0.89870764E-01  -0.41359431E-01
  7121.6990       0.82452537        1.6176625       0.82503841        1.6181754       0.75252029E-01  -0.11209669E-01
  7122.2990       0.86846579        1.5587208       0.86917491        1.5594298       0.76419161E-01   0.10968723E-01
  7122.8990       0.91622836        1.5034069       0.91713280        1.5043112       0.88414496E-01   0.27572552E-01
  7123.4890       0.97367904        1.4524404       0.97477479        1.4535361       0.10923050       0.22022079E-01
  7124.0890        1.0462127        1.4039801        1.0475022        1.4052695       0.11462077      -0.53667998E-02
  7124.6890        1.1112240        1.3588033        1.1127065        1.3602858       0.10279034      -0.26695358E-01
  7125.2890        1.1695611        1.3167947        1.1712359        1.3184694       0.82586340E-01  -0.41760943E-01
  7125.8890        1.2103276        1.2778389        1.2121939        1.2797050       0.52677207E-01  -0.48917892E-01
  7126.4890        1.2327737        1.2418205        1.2348307        1.2438773       0.23884870E-01  -0.36938731E-01
  7127.0790        1.2387506        1.2091549        1.2409943        1.2113985       0.87201166E-02  -0.20673517E-01
  7127.6790        1.2431506        1.1786210        1.2455836        1.1810538      -0.71661563E-03  -0.15964698E-01
  7128.2790        1.2378906        1.1506805        1.2405120        1.1533016      -0.10437521E-01  -0.90873755E-02
  7128.8790        1.2306256        1.1252177        1.2334346        1.1280266      -0.11621466E-01  -0.28978788E-02
  7129.4790        1.2239449        1.1021175        1.2269407        1.1051132      -0.13914975E-01  -0.45113852E-02
  7130.0790        1.2139277        1.0812645        1.2171096        1.0844463      -0.17035129E-01  -0.46252754E-02
  7130.6790        1.2035027        1.0625432        1.2068700        1.0659103      -0.19465306E-01  -0.16957093E-02
  7131.2790        1.1905693        1.0458383        1.1941211        1.0493899      -0.19069980E-01  -0.27260697E-02
  7131.8790        1.1806187        1.0310344        1.1843544        1.0347699      -0.22736590E-01  -0.76293915E-02
  7132.4790        1.1632854        1.0180162        1.1672040        1.0219347      -0.28225250E-01  -0.18849285E-02
  7133.0790        1.1467484        1.0066683        1.1508493        1.0107691      -0.24998504E-01   0.61932452E-02
  7133.6790        1.1332872       0.99687533        1.1375696        1.0011576      -0.20793355E-01   0.76893264E-04
  7134.2790        1.1217964       0.98852193        1.1262595       0.99298488      -0.24906232E-01  -0.26770350E-03
  7134.8790        1.1033997       0.98149272        1.1080427       0.98613562      -0.21114600E-01   0.74438355E-02
  7135.4790        1.0964589       0.97567234        1.1012811       0.98049441      -0.15973629E-01  -0.30329615E-03
  7136.0790        1.0842313       0.97094541        1.0892320       0.97594589      -0.21478555E-01  -0.13478800E-02
  7136.6790        1.0706846       0.96719658        1.0758629       0.97237470      -0.17591085E-01   0.76612431E-02
  7137.2790        1.0631220       0.96431048        1.0684772       0.96966546      -0.12285063E-01   0.58784286E-02
  7137.8790        1.0559425       0.96217172        1.0614738       0.96770280      -0.10536971E-01  -0.89539250E-03
  7138.4790        1.0504777       0.96066496        1.0561842       0.96637137      -0.13359534E-01  -0.37495997E-02
  7139.0790        1.0399111       0.95967482        1.0457922       0.96555578      -0.15036491E-01   0.11112464E-02
  7139.6790        1.0324339       0.95908592        1.0384888       0.96514068      -0.12026039E-01   0.52864606E-02
  7140.2790        1.0254799       0.95878291        1.0317078       0.96501069      -0.86927377E-02   0.64598141E-03
  7140.8790        1.0220026       0.95865042        1.0284028       0.96505045      -0.11250861E-01  -0.57712403E-02
  7141.4790        1.0119788       0.95857681        1.0185505       0.96514832      -0.15618226E-01  -0.11619045E-02
  7142.0790        1.0032607       0.95851119        1.0100031       0.96525341      -0.12645146E-01   0.31793785E-02
  7142.6890       0.99667820       0.95845111        1.0035933       0.96536610      -0.11771178E-01  -0.20956241E-02
  7143.2890       0.98901760       0.95839846       0.99610187       0.96548261      -0.15180852E-01  -0.48281194E-02
  7143.8890       0.97846118       0.95835211       0.98571384       0.96560465      -0.17564921E-01  -0.19305191E-02
  7144.4890       0.96793969       0.95831199       0.97535998       0.96573215      -0.17497474E-01   0.28888992E-02
  7145.0890       0.95746421       0.95827800       0.96505134       0.96586502      -0.14098242E-01   0.23904621E-02
  7145.6890       0.95102180       0.95825007       0.95877502       0.96600317      -0.14628920E-01  -0.28106352E-02
  7146.2990       0.93976322       0.95822780       0.94768449       0.96614896      -0.17499111E-01   0.16324523E-02
  7146.8990       0.92984788       0.95821183       0.93793369       0.96629751      -0.12653653E-01   0.37513286E-02
  7147.4990       0.92457883       0.95820166       0.93282840       0.96645111      -0.12997517E-01  -0.86653949E-03
  7148.0990       0.91425086       0.95819721       0.92266342       0.96660965      -0.13693500E-01   0.31407989E-02
  7148.6990       0.90814663       0.95819840       0.91672141       0.96677306      -0.92285580E-02   0.24855819E-02
  7149.3090       0.90308430       0.95820529       0.91182322       0.96694410      -0.10685946E-01   0.16192084E-02
  7149.9090       0.89521664       0.95821759       0.90411623       0.96711707      -0.72693158E-02   0.48295446E-02
  7150.5090       0.89436113       0.95823528       0.90342062       0.96729466      -0.48904924E-02   0.10676921E-02
  7151.1190       0.88929914       0.95825869       0.89852041       0.96747985      -0.59774084E-02   0.48706257E-03
  7151.7190       0.88712846       0.95828698       0.89650808       0.96766649      -0.43011467E-02   0.13365590E-02
  7152.3190       0.88413777       0.95832041       0.89367497       0.96785749      -0.43735375E-02   0.18825588E-02
  7152.9190       0.88188022       0.95835888       0.89157423       0.96805277      -0.20420762E-02   0.61848616E-02
  7153.5290       0.88166685       0.95840308       0.89151950       0.96825561       0.31101450E-02   0.31795292E-02
  7154.1290       0.88564349       0.95845148       0.89565140       0.96845927       0.18051541E-02  -0.39652105E-02
  7154.7290       0.88383304       0.95850468       0.89399544       0.96866696      -0.16481076E-02  -0.20088260E-02
  7155.3390       0.88364928       0.95856360       0.89396796       0.96888216      -0.62552537E-03   0.32221787E-02
  7155.9390       0.88307615       0.95862622       0.89354777       0.96909771       0.22507286E-02   0.58321140E-02
  7156.5490       0.88637266       0.95869454       0.89699898       0.96932074       0.64313325E-02   0.84002256E-03
  7157.1490       0.89085807       0.95876624       0.90163577       0.96954382       0.32671559E-02  -0.45305982E-02
  7157.7490       0.89029325       0.95884232       0.90122157       0.96977052       0.99461465E-03   0.88766526E-03
  7158.3590       0.89206155       0.95892406       0.90314221       0.97000461       0.43412308E-02   0.37751364E-02
  7158.9590       0.89554614       0.95900871       0.90677586       0.97023832       0.55625297E-02   0.33250185E-02
  7159.5690       0.89879221       0.95909900       0.91017270       0.97047938       0.83645032E-02  -0.13748749E-02
  7160.1690       0.90566719       0.95919189       0.91719519       0.97071978       0.38989311E-02  -0.58139228E-02
  7160.7790       0.90350992       0.95929038       0.91518711       0.97096745       0.13296567E-02   0.23644509E-02
  7161.3790       0.90727607       0.95939116       0.91909922       0.97121419       0.67599167E-02   0.43588033E-02
  7161.9790       0.91162182       0.95949573       0.92359016       0.97146396       0.65602207E-02  -0.11062778E-02
  7162.5890       0.91521394       0.95960584       0.92732911       0.97172089       0.54213205E-02   0.71772440E-03
  7163.1890       0.91818162       0.95971779       0.93044043       0.97197649       0.74286672E-02   0.20174063E-02
  7163.7990       0.92420263       0.95983524       0.93660669       0.97223918       0.78623822E-02  -0.10545079E-02
  7164.3990       0.92769510       0.95995424       0.94024125       0.97250028       0.61527126E-02  -0.32364562E-02
  7165.0090       0.93164741       0.96007868       0.94433723       0.97276838       0.39462702E-02  -0.20602087E-02
  7165.6190       0.93250955       0.96020651       0.94534225       0.97303909       0.36392580E-02   0.47591083E-02
  7166.2190       0.93605091       0.96033548       0.94902337       0.97330781       0.97047912E-02   0.11302306E-02
  7166.8290       0.94425235       0.96046978       0.95736610       0.97358342       0.50068371E-02  -0.56557632E-02
  7167.4290       0.94210918       0.96060494       0.95536114       0.97385678       0.28613177E-02   0.13964942E-02
  7168.0390       0.94771454       0.96074538       0.96110622       0.97413693       0.66965950E-02  -0.13061050E-02
  7168.6390       0.95021206       0.96088639       0.96374040       0.97441461       0.12809307E-02  -0.31806785E-02
  7169.2490       0.94926447       0.96103261       0.96293094       0.97469896       0.28479741E-02   0.34900969E-02
  7169.8590       0.95368659       0.96118161       0.96749042       0.97498531       0.55388489E-02   0.43444678E-02
  7170.4590       0.95596647       0.96133080       0.96990462       0.97526882       0.81047801E-02   0.22659947E-02
  7171.0690       0.96349338       0.96148506       0.97756729       0.97555885       0.82807025E-02  -0.34621925E-02
  7171.6790       0.96606893       0.96164185       0.98027782       0.97585061       0.38809053E-02  -0.31772164E-02
  7172.2790       0.96818927       0.96179844       0.98253015       0.97613919       0.44362706E-02   0.29451232E-02
  7172.8890       0.97143682       0.96195997       0.98591109       0.97643412       0.74445043E-02   0.24054023E-02
  7173.4890       0.97719712       0.96212106       0.99180183       0.97672564       0.73468075E-02  -0.21367659E-02
  7174.0990       0.98032645       0.96228699       0.99506298       0.97702339       0.48590176E-02  -0.24877975E-02
  7174.7090       0.98312512       0.96245501       0.99799268       0.97732243       0.43116945E-02  -0.11503123E-02
  7175.3190       0.98558672       0.96262502        1.0005845       0.97762268       0.34556366E-02  -0.69181172E-03
  7175.9190       0.98730644       0.96279411        1.0024315       0.97791909       0.34746023E-02  -0.49909351E-02
  7176.5290       0.98979099       0.96296784        1.0050447       0.97822146      -0.25833949E-02  -0.43869165E-02
  7177.1390       0.98415470       0.96314329       0.99953631       0.97852478      -0.18774358E-02   0.56857943E-02
  7177.7490       0.98750052       0.96332040        1.0030092       0.97882894       0.43532742E-02   0.29225157E-02
  7178.3490       0.98942216       0.96349613        1.0050550       0.97912888       0.16588082E-02  -0.31617032E-02
  7178.9590       0.98950768       0.96367625        1.0052660       0.97943448       0.52761339E-03  -0.11006021E-02
  7179.5690       0.99006585       0.96385776        1.0059489       0.97974068       0.31607361E-03  -0.68787761E-03
  7180.1790       0.98989329       0.96404057        1.0059002       0.98004738      -0.31159729E-03   0.37742923E-03
  7180.7790       0.98968882       0.96422157        1.0058168       0.98034946       0.77276298E-03  -0.19305956E-03
  7181.3890       0.99082833       0.96440669        1.0070787       0.98065691      -0.54519936E-03  -0.18485652E-02
  7181.9990       0.98902368       0.96459286        1.0053955       0.98096459      -0.14824866E-02   0.30114110E-02
  7182.6090       0.98901970       0.96477998        1.0055123       0.98127244       0.31287220E-02   0.81838895E-02
  7183.2190       0.99284072       0.96496796        1.0094532       0.98158035       0.85018586E-02   0.32178301E-02
  7183.8290       0.99939196       0.96515672        1.0161236       0.98188824       0.70544747E-02  -0.75582201E-02
  7184.4390        1.0014472       0.96534616        1.0182972       0.98219602      -0.71916999E-03  -0.79427965E-02
  7185.0390       0.99852177       0.96553308        1.0154874       0.98249857      -0.25563091E-02  -0.21628049E-02
  7185.6490       0.99835404       0.96572363        1.0154364       0.98280588      -0.33361639E-02   0.16796615E-02
  7186.2590       0.99445165       0.96591461        1.0116500       0.98311282      -0.50712207E-03   0.65763094E-02
  7186.8690       0.99773535       0.96610592        1.0150489       0.98341930       0.46869336E-02   0.11400742E-02
  7187.4790        1.0001697       0.96629748        1.0175976       0.98372524       0.88376840E-03  -0.56579297E-02
  7188.0890       0.99881355       0.96648920        1.0163550       0.98403055      -0.22157407E-02  -0.76406306E-03
  7188.6990       0.99746650       0.96668100        1.0151208       0.98433513      -0.48388523E-04   0.18488678E-02
  7189.3090       0.99875452       0.96687279        1.0165208       0.98463891       0.39877973E-04   0.11584296E-04
  7189.9190       0.99751515       0.96706448        1.0153926       0.98494179      -0.34255682E-04  -0.18113798E-02
  7190.5290       0.99871273       0.96725598        1.0167006       0.98524369      -0.21700054E-02  -0.29801326E-02
  7191.1390       0.99486775       0.96744720        1.0129652       0.98554452      -0.36700174E-02   0.17803113E-02
  7191.7490       0.99423530       0.96763806        1.0124416       0.98584418       0.19743234E-05   0.36057978E-02
  7192.3590       0.99487016       0.96782846        1.0131844       0.98614260       0.72905592E-03  -0.13828127E-02
  7192.9690       0.99512475       0.96801833        1.0135462       0.98643969      -0.16850571E-02  -0.26500938E-02
  7193.5790       0.99281439       0.96820757        1.0113423       0.98673536      -0.25040585E-02  -0.83264027E-03
  7194.1890       0.99206980       0.96839610        1.0107033       0.98702951      -0.27008783E-02  -0.54736453E-03
  7194.7990       0.98951932       0.96858382        1.0082577       0.98732207      -0.31718432E-02   0.65303800E-03
  7195.4090       0.98820015       0.96877066        1.0070426       0.98761294      -0.19041719E-02   0.36715970E-02
  7196.0190       0.98719623       0.96895652        1.0061419       0.98790204       0.13075051E-02   0.17874192E-02
  7196.6290       0.98979531       0.96914131        1.0088434       0.98818928       0.27647954E-03  -0.39628849E-02
  7197.2390       0.98753353       0.96932494        1.0066833       0.98847457      -0.35272144E-02  -0.17355007E-02
  7197.8490       0.98549211       0.96950734        1.0047427       0.98875782      -0.18408313E-02   0.30600361E-02
  7198.4590       0.98528772       0.96968841        1.0046384       0.98903895       0.20602962E-03  -0.92727722E-03
  7199.0790       0.98574552       0.96987099        1.0051971       0.98932243      -0.29813823E-02  -0.26559288E-02
  7199.6890       0.98162062       0.97004912        1.0011706       0.98959901      -0.30607628E-02   0.25177400E-02
  7200.2990       0.98201139       0.97022565        1.0016591       0.98987320       0.90260538E-04   0.33373214E-02
  7200.9090       0.98173073       0.97040049        1.0014753       0.99014491       0.10107693E-02   0.81903606E-03
  7201.5190       0.98324453       0.97057357        1.0030851       0.99041407       0.10894845E-02  -0.27785177E-02
  7202.1290       0.98305991       0.97074480        1.0029958       0.99068057      -0.23790222E-02  -0.41506722E-02
  7202.7490       0.98031833       0.97091683        1.0003503       0.99094863      -0.40158423E-02  -0.13868319E-02
  7203.3590       0.97812042       0.97108405       0.99824601       0.99120952      -0.40848255E-02   0.29810380E-02
  7203.9690       0.97533485       0.97124914       0.99555332       0.99146749      -0.37897598E-03   0.42274869E-02
  7204.5790       0.97765807       0.97141202       0.99796862       0.99172245       0.10727085E-02   0.80101119E-05
  7205.1890       0.97664355       0.97157261       0.99704539       0.99197433      -0.36920364E-03  -0.21692062E-02
  7205.8090       0.97720395       0.97173347       0.99769776       0.99222715      -0.15954152E-02  -0.92426682E-03
  7206.4190       0.97468119       0.97188940       0.99526469       0.99247278      -0.15060518E-02   0.66888034E-03
  7207.0290       0.97536656       0.97204306       0.99603895       0.99271532      -0.77938114E-03   0.60246184E-03
  7207.6490       0.97372255       0.97219692       0.99448447       0.99295872      -0.76502378E-03  -0.12913954E-02
  7208.2590       0.97442559       0.97234604       0.99527479       0.99319512      -0.23677975E-02   0.50516541E-03
  7208.8690       0.97083384       0.97249293       0.99176953       0.99342850      -0.14872198E-03   0.26052343E-02
  7209.4790       0.97424414       0.97263761       0.99526553       0.99365887       0.81058838E-03  -0.25192061E-02
  7210.0990       0.97183086       0.97278242       0.99293853       0.99388997      -0.32473455E-02  -0.19371969E-02
  7210.7090       0.97024991       0.97292270       0.99144167       0.99411434      -0.15721638E-02   0.25804602E-02
  7211.3190       0.96991282       0.97306083       0.99118788       0.99433577      -0.99184068E-04   0.10205316E-02
  7211.9390       0.97012791       0.97319904       0.99148682       0.99455782      -0.31690993E-03   0.96411580E-03
  7212.5490       0.96952302       0.97333288       0.99096362       0.99477335       0.10866784E-02   0.25115063E-03
  7213.1690       0.97146453       0.97346676       0.99298734       0.99498946      -0.79946487E-05  -0.23201798E-02
  7213.7790       0.96951319       0.97359639       0.99111610       0.99519917      -0.17671428E-02  -0.14311310E-02
  7214.3890       0.96930861       0.97372395       0.99099081       0.99540603      -0.17539745E-02  -0.98256768E-03
  7215.0090       0.96735580       0.97385151       0.98911778       0.99561336      -0.29757010E-02  -0.42861201E-03
  7215.6190       0.96564850       0.97397496       0.98748817       0.99581451      -0.22811673E-02   0.80705716E-03
  7216.2390       0.96454997       0.97409838       0.98646778       0.99601608      -0.19830207E-02   0.20729223E-02
  7216.8490       0.96320939       0.97421781       0.98520329       0.99621159       0.26852712E-03   0.14795549E-02
  7217.4690       0.96488025       0.97433717       0.98695068       0.99640747      -0.16316821E-03  -0.81237734E-03
  7218.0790       0.96300869       0.97445263       0.98515360       0.99659741      -0.73069700E-03   0.93180957E-03
  7218.6890       0.96398880       0.97456616       0.98620740       0.99678463       0.97363947E-03   0.41803154E-03
  7219.3090       0.96420627       0.97467958       0.98649894       0.99697213      -0.21651821E-03  -0.20078448E-02
  7219.9190       0.96372249       0.97478925       0.98608725       0.99715389      -0.14960097E-02  -0.11412133E-02
  7220.5390       0.96236617       0.97489880       0.98480339       0.99733589      -0.16202106E-02   0.41526523E-02
  7221.1490       0.96172963       0.97500470       0.98423732       0.99751227       0.36117527E-02   0.36688689E-02
  7221.7690       0.96680863       0.97511044       0.98938714       0.99768883       0.28924981E-02  -0.44291240E-02
  7222.3890       0.96531632       0.97521429       0.98796484       0.99786268      -0.18803611E-02  -0.20559477E-02
  7222.9990       0.96449579       0.97531465       0.98721237       0.99803111       0.36368242E-03   0.19719540E-02
  7223.6190       0.96576365       0.97541481       0.98854861       0.99819964       0.54514230E-03  -0.20805898E-02
  7224.2290       0.96516631       0.97551157       0.98801773       0.99836287      -0.21954431E-02  -0.34636908E-02
  7224.8490       0.96306326       0.97560812       0.98598142       0.99852615      -0.37151973E-02   0.20185166E-03
  7225.4590       0.96059662       0.97570135       0.98357964       0.99868425      -0.19471655E-02   0.39563321E-02
  7226.0790       0.96066825       0.97579436       0.98371638       0.99884237       0.11510912E-02   0.23074551E-02
  7226.6990       0.96202397       0.97588561       0.98513639       0.99899790       0.91407882E-03   0.13426842E-02
  7227.3090       0.96179256       0.97597368       0.98496744       0.99914843       0.28025927E-02  -0.84487583E-03
  7227.9290       0.96547116       0.97606150       0.98870869       0.99929891      -0.12511845E-03  -0.55692387E-02
  7228.5490       0.96163742       0.97614762       0.98493679       0.99944686      -0.41032632E-02  -0.66177105E-03
  7229.1590       0.96042415       0.97623070       0.98378355       0.99958999      -0.93909684E-03   0.49270645E-02
  7229.7790       0.96048233       0.97631350       0.98390194       0.99973299       0.19570261E-02   0.67445544E-03
  7231.2590       0.96453390       0.97650453       0.98809392        1.0000644       0.47725959E-03  -0.50408887E-03
  7233.4790       0.96224819       0.97677407       0.98601003        1.0005358       0.91897279E-04   0.20841069E-04
  7235.8290       0.96495387       0.97703801       0.98891788        1.0010019       0.57250328E-03   0.18827237E-04
  7238.0490       0.96486453       0.97726806       0.98900868        1.0014121       0.17793775E-03  -0.19309864E-04
  7240.3990       0.96576705       0.97749214       0.99009041        1.0018154       0.48425720E-03   0.20987625E-03
  7242.7590       0.96714538       0.97769807       0.99163684        1.0021894       0.11664549E-02   0.25012180E-03
  7245.1090       0.97126105       0.97788514       0.99590807        1.0025320       0.16623309E-02  -0.12027215E-03
  7247.4590       0.97495833       0.97805528       0.99974911        1.0028459       0.60117576E-03  -0.27966203E-03
  7249.8190       0.97409259       0.97821016       0.99901585        1.0031333       0.34512273E-03   0.74626511E-04
  7252.1790       0.97658731       0.97835004        1.0016312        1.0033938       0.95341289E-03   0.19945499E-03
  7254.6590       0.97870711       0.97848202        1.0038648        1.0036396       0.13104849E-02  -0.87215678E-06
  7257.1490       0.98310042       0.97860025        1.0083593        1.0038590       0.94907827E-03  -0.25424353E-03
  7259.6290       0.98342402       0.97870500        1.0087704        1.0040513       0.46894549E-04  -0.16004205E-03
  7262.1190       0.98333349       0.97879832        1.0087546        1.0042193       0.15366928E-03   0.10300744E-03
  7264.6090       0.98418930       0.97888100        1.0096718        1.0043634       0.55987158E-03   0.34956658E-05
  7267.1090       0.98612725       0.97895452        1.0116581        1.0044853       0.17111266E-03  -0.16058249E-03
  7269.7290       0.98506539       0.97902273        1.0106326        1.0045898      -0.26231076E-03   0.25078645E-04
  7272.2190       0.98478684       0.97908044        1.0103750        1.0046684       0.29926453E-03   0.19010719E-03
  7274.8490       0.98659763       0.97913524        1.0121935        1.0047310       0.71103803E-03  -0.15909420E-03
  7277.4690       0.98851979       0.97918495        1.0141086        1.0047737      -0.53598003E-03  -0.24068523E-03
  7280.0990       0.98378373       0.97923139        1.0093508        1.0047983      -0.55255942E-03   0.10467254E-03
  7282.7290       0.98561333       0.97927580        1.0111438        1.0048061       0.14597545E-04  -0.15397538E-04
  7285.4790       0.98386227       0.97932163        1.0093387        1.0047979      -0.63539817E-03  -0.10539399E-03
  7288.1190       0.98218853       0.97936654        1.0075978        1.0047757      -0.55347606E-03   0.72535053E-04
  7290.8790       0.98087350       0.97941607        1.0061967        1.0047392      -0.24370888E-03   0.25736403E-04
  7296.4090       0.98016818       0.97952981        1.0052700        1.0046315      -0.34012128E-03  -0.21230497E-04
  7299.1690       0.97805389       0.97959716        1.0030207        1.0045638      -0.41970970E-03   0.81920008E-04
  7301.9390       0.97784719       0.97967407        1.0026622        1.0044889       0.11289636E-03   0.11805975E-03
  7304.8390       0.97869401       0.97976643        1.0033325        1.0044048       0.24968906E-03  -0.53997531E-04
  7307.6090       0.97926293       0.97986769        1.0037160        1.0043206      -0.19326964E-03  -0.86807749E-04
  7310.5190       0.97759624       0.97998969        1.0018369        1.0042302      -0.24337896E-03   0.28715881E-04
  7313.4190       0.97784889       0.98012887        1.0018598        1.0041397      -0.26430366E-04   0.19226146E-04
  7316.3290       0.97744268       0.98028665        1.0012050        1.0040489      -0.13167505E-03  -0.45138375E-05
  7319.2390       0.97708255       0.98046253        1.0005782        1.0039581      -0.52700901E-04   0.13003547E-03
  7322.1490       0.97713596       0.98065649        1.0003469        1.0038673       0.62513140E-03   0.76067058E-04
  7325.1890       0.98080208       0.98087838        1.0036962        1.0037724       0.39989810E-03  -0.17050516E-03
  7328.1090       0.97951936       0.98111001        1.0020906        1.0036811      -0.39107934E-03  -0.81464460E-04
  7331.1490       0.97847124       0.98137038        1.0006869        1.0035859      -0.85630084E-04   0.20734623E-03
  7334.1990       0.97899787       0.98165127        1.0008370        1.0034903       0.87165918E-03   0.85860107E-04
  7337.2490       0.98378837       0.98195182        1.0052311        1.0033944       0.43811657E-03  -0.17269239E-03
  7340.3090       0.98167476       0.98227306        1.0026998        1.0032979      -0.18349132E-03  -0.11145058E-04
  7343.3590       0.98266723       0.98261286        1.0032560        1.0032015       0.37002027E-03   0.11074358E-03
  7346.5490       0.98398369       0.98298916        1.0040949        1.0031002       0.50754860E-03   0.39172061E-04
  7349.6090       0.98583941       0.98337015        1.0054721        1.0030027       0.61484565E-03  -0.52084190E-04
  7352.8090       0.98783262       0.98378952        1.0069434        1.0029002       0.18150157E-03  -0.17691048E-03
  7355.9990       0.98699921       0.98422884        1.0055680        1.0027976      -0.51561229E-03  -0.81618493E-04
  7359.1990       0.98453786       0.98469082        1.0025412        1.0026940      -0.34004059E-03   0.11532506E-03
  7362.3990       0.98482295       0.98517407        1.0022388        1.0025898       0.22246808E-03   0.55163282E-04
  7365.5990       0.98596165       0.98567854        1.0027682        1.0024850       0.13004411E-04  -0.32923374E-04
  7368.9390       0.98490800       0.98622767        1.0010553        1.0023748       0.71492069E-05   0.50587249E-04
  7372.1490       0.98600848       0.98677711        1.0014997        1.0022682       0.34435089E-03   0.62204972E-04
  7375.4890       0.98716349       0.98737132        1.0019486        1.0021563       0.41459177E-03   0.46772798E-05
  7378.8390       0.98878210       0.98799031        1.0028351        1.0020432       0.37564190E-03  -0.58738912E-04
  7382.1790       0.98967654       0.98863036        1.0029757        1.0019294       0.21628450E-04  -0.37325878E-04
  7385.5290       0.98892679       0.98929522        1.0014460        1.0018143       0.12593177E-03   0.84486931E-04
  7388.8890       0.99052154       0.98998505        1.0022343        1.0016977       0.58853576E-03  -0.53749776E-05
  7392.2490       0.99288176       0.99069786        1.0037639        1.0015799       0.89811919E-04  -0.10653067E-03
  7395.7390       0.99113675       0.99146250        1.0011307        1.0014563      -0.14119933E-03   0.95580753E-05
  7399.0990       0.99191454       0.99222195        1.0010287        1.0013360       0.15528473E-03   0.53231762E-04
  7402.5990       0.99220201       0.99303730        1.0003741        1.0012093       0.22397055E-03   0.10339825E-04
  7406.0990       0.99348233       0.99387733        1.0006862        1.0010811       0.22766351E-03   0.94456789E-05
  7409.5990       0.99379565       0.99474197        1.0000051        1.0009513       0.29009031E-03  -0.59809023E-05
  7413.1090       0.99551587       0.99563375        1.0007017        1.0008195       0.18573739E-03  -0.37260414E-05
  7416.7490       0.99512367       0.99658457       0.99922026        1.0006810       0.26344911E-03   0.23572819E-04
  7420.2590       0.99739953       0.99752647        1.0004189        1.0005457       0.35428304E-03   0.13428269E-04
  7423.9090       0.99766034       0.99853192       0.99953164        1.0004031       0.35959552E-03  -0.12931680E-04
  7427.4290       0.99997783       0.99952661        1.0007150        1.0002636       0.26156290E-03  -0.26027313E-04
  7431.0790       0.99953575        1.0005839       0.99906885        1.0001169       0.17297968E-03   0.22721792E-04
  7434.7390        1.0012423        1.0016705       0.99953951       0.99996760       0.42765920E-03   0.17189066E-05
  7438.3990        1.0026662        1.0027835       0.99969887       0.99981605       0.18556208E-03  -0.33443513E-04
  7442.0690        1.0026025        1.0039260       0.99833840       0.99966174       0.18251825E-03   0.33613119E-04
  7445.8690        1.0040296        1.0051366       0.99839253       0.99949942       0.43665208E-03   0.32381069E-04
  7449.5390        1.0058643        1.0063327       0.99887185       0.99934012       0.42440483E-03  -0.44552646E-05
  7453.3490        1.0072042        1.0076021       0.99877426       0.99917204       0.40332670E-03  -0.10211047E-04
  7457.0390        1.0088892        1.0088584       0.99903752       0.99900655       0.34782197E-03  -0.90434033E-05
  7460.8490        1.0098128        1.0101832       0.99846258       0.99883281       0.33550118E-03   0.18474793E-04
  7464.6690        1.0114491        1.0115396       0.99856520       0.99865561       0.48878464E-03  -0.95512221E-05
  7468.4990        1.0135520        1.0129278       0.99909919       0.99847486       0.26243433E-03  -0.55042420E-05
  7472.3290        1.0134593        1.0143442       0.99740618       0.99829094       0.44662215E-03   0.34843263E-04
  7476.2890        1.0170312        1.0158383       0.99929047       0.99809738       0.53386334E-03  -0.34275840E-04
  7480.1290        1.0176235        1.0173156       0.99821426       0.99790630       0.17927060E-03  -0.15237248E-04
  7484.0990        1.0184313        1.0188726       0.99726403       0.99770517       0.41486044E-03   0.20292125E-04
  7488.0790        1.0209216        1.0204636       0.99795800       0.99749981       0.34059299E-03  -0.40150115E-05
  7491.9290        1.0210982        1.0220311       0.99636470       0.99729753       0.38342290E-03   0.23873641E-04
  7495.9190        1.0239277        1.0236853       0.99732653       0.99708404       0.52776233E-03   0.20684677E-04
  7499.9090        1.0253097        1.0253695       0.99680693       0.99686656       0.54848662E-03  -0.80320988E-05
  7504.0390        1.0283814        1.0271443       0.99787435       0.99663715       0.46254169E-03   0.33211008E-05
  7508.0390        1.0290702        1.0288938       0.99658727       0.99641072       0.57548717E-03   0.22188427E-04
  7512.0490        1.0329910        1.0306776       0.99849295       0.99617944       0.64027098E-03  -0.36604919E-04
  7516.1890        1.0342884        1.0325508       0.99767378       0.99593608       0.27715708E-03  -0.40690237E-04
  7520.3390        1.0352886        1.0344605       0.99651562       0.99568737       0.30294892E-03   0.29166866E-04
  7524.4890        1.0368029        1.0364022       0.99583462       0.99543380       0.51924207E-03   0.32083603E-04
  7528.5090        1.0395309        1.0383134       0.99640105       0.99518345       0.56507195E-03  -0.10489580E-04
  7532.6690        1.0414252        1.0403225       0.99602215       0.99491940       0.43343730E-03  -0.22884688E-05
  7536.9690        1.0431977        1.0424327       0.99540617       0.99464105       0.54571151E-03  -0.29077789E-05
  7541.1490        1.0460528        1.0445166       0.99590143       0.99436508       0.40877934E-03  -0.11201025E-04
  7545.3190        1.0466110        1.0466272       0.99406833       0.99408439       0.45218294E-03   0.28575095E-04
  7549.6390        1.0498918        1.0488473       0.99483254       0.99378784       0.65138189E-03  -0.10124045E-04
  7553.8190        1.0521478        1.0510276       0.99461553       0.99349523       0.36612857E-03  -0.12897532E-04
  7558.1490        1.0530076        1.0533196       0.99287422       0.99318612       0.54162390E-03   0.93295285E-05
  7566.8190        1.0591889        1.0580106       0.99372690       0.99254844       0.48741244E-03  -0.16408614E-04
  7571.1590        1.0593488        1.0604095       0.99115908       0.99221964       0.32814783E-03   0.14711995E-04
  7575.5090        1.0620405        1.0628478       0.99107637       0.99188352       0.61525967E-03   0.22949959E-04
  7579.9890        1.0647816        1.0653942       0.99091782       0.99153036       0.53079597E-03  -0.79304819E-05
  7584.3490        1.0667327        1.0679067       0.99000589       0.99117976       0.54515421E-03   0.17354102E-04
  7588.8490        1.0696116        1.0705353       0.98988712       0.99081063       0.68455332E-03   0.23831010E-05
  7593.2190        1.0728047        1.0731221       0.99012775       0.99044500       0.56629232E-03  -0.16582851E-04
  7597.7290        1.0746403        1.0758271       0.98887346       0.99006013       0.53729760E-03   0.27374990E-05
  7611.2890        1.0825137        1.0841747       0.98719489       0.98885575       0.61575892E-03   0.13258750E-04
  7615.8190        1.0857794        1.0870348       0.98718197       0.98843722       0.77714840E-03   0.21773000E-04
  7620.4990        1.0896712        1.0900269       0.98764060       0.98799610       0.81628825E-03  -0.12714249E-04
  7625.0390        1.0933055        1.0929656       0.98789967       0.98755960       0.65992302E-03  -0.37048708E-04
  7629.7290        1.0957623        1.0960387       0.98682342       0.98709965       0.47432867E-03  -0.30844732E-05
  7634.2790        1.0976883        1.0990561       0.98527695       0.98664455       0.63142249E-03   0.49920126E-04
  7638.9790        1.1016030        1.1022101       0.98555816       0.98616514       0.93608983E-03   0.17383069E-04
  7643.6890        1.1064970        1.1054086       0.98676362       0.98567509       0.79499717E-03  -0.36327851E-04
  7648.3990        1.1090919        1.1086447       0.98562259       0.98517527       0.59388148E-03  -0.12570789E-04
  7653.1190        1.1120973        1.1119253       0.98483657       0.98466446       0.67645463E-03   0.96686415E-05
  7657.8390        1.1154776        1.1152436       0.98437787       0.98414377       0.68515345E-03   0.73534032E-05
  7662.5690        1.1185720        1.1186071       0.98357730       0.98361227       0.74594429E-03   0.17971987E-04
  7667.4390        1.1226386        1.1221101       0.98358382       0.98305511       0.85768453E-03  -0.52484983E-05
  7672.1790        1.1268143        1.1255588       0.98375900       0.98250337       0.69550622E-03  -0.16040970E-04
  7677.0690        1.1293364        1.1291575       0.98210369       0.98192463       0.70320999E-03   0.49393491E-05
  7681.8190        1.1335932        1.1326929       0.98225384       0.98135339       0.74312155E-03  -0.80048632E-05
  7686.7190        1.1365075        1.1363815       0.98088116       0.98075499       0.62596306E-03   0.61995895E-06
  7691.6290        1.1397339        1.1401199       0.97976045       0.98014630       0.74920334E-03   0.19080072E-04
  7696.5390        1.1438647        1.1439011       0.97949250       0.97952877       0.81332937E-03   0.35120746E-05
  7701.4590        1.1477290        1.1477330       0.97889748       0.97890137       0.78372704E-03  -0.36592725E-05
  7706.3890        1.1515844        1.1516162       0.97823262       0.97826427       0.77728553E-03  -0.32473050E-06
  7711.4590        1.1555018        1.1556553       0.97744725       0.97760054       0.78047973E-03   0.57383984E-05
  7716.3990        1.1593970        1.1596355       0.97670733       0.97694575       0.83472690E-03   0.75615832E-05
  7721.4890        1.1638741        1.1637832       0.97635412       0.97626299       0.85632241E-03  -0.34252489E-05
  7726.4390        1.1679945        1.1678622       0.97572383       0.97559139       0.80033740E-03  -0.83359214E-05
  7731.5390        1.1719175        1.1721120       0.97469755       0.97489183       0.77254640E-03   0.72273469E-05
  7736.6490        1.1758822        1.1764184       0.97364738       0.97418344       0.87412861E-03   0.12591490E-04
  7741.6190        1.1807287        1.1806534       0.97356302       0.97348753       0.89946862E-03   0.32782108E-05
  7752.0090        1.1896980        1.1896565       0.97205339       0.97201175       0.92448193E-03   0.36666479E-05
  7757.1490        1.1950859        1.1941858       0.97217206       0.97127173       0.95641166E-03  -0.84119052E-05
  7762.2890        1.1995299        1.1987653       0.97129029       0.97052551       0.83800755E-03  -0.89071190E-05
  7767.4390        1.2037090        1.2034044       0.97007669       0.96977188       0.86475741E-03   0.52652173E-05
  7772.7390        1.2085666        1.2082319       0.96932529       0.96899036       0.89302907E-03  -0.18495294E-06
  7777.8990        1.2130501        1.2129840       0.96829030       0.96822399       0.86282280E-03   0.14568612E-06
  7783.2190        1.2176090        1.2179376       0.96709999       0.96742846       0.89455586E-03   0.16048619E-04
  7788.5390        1.2225682        1.2229466       0.96624951       0.96662776       0.10335801E-02   0.17502093E-04
  7793.7290        1.2284719        1.2278868       0.96642724       0.96584193       0.10785029E-02  -0.11080758E-04
  7799.0590        1.2339141        1.2330156       0.96592898       0.96503036       0.91701054E-03  -0.13494433E-04
  7804.4090        1.2382656        1.2382204       0.96425681       0.96421144       0.93438231E-03   0.89315939E-05
  7809.9090        1.2440521        1.2436307       0.96378693       0.96336538       0.10139183E-02   0.53445380E-05
  7815.2690        1.2492768        1.2489618       0.96285225       0.96253709       0.99242399E-03  -0.11190515E-05
  7820.6290        1.2546909        1.2543508       0.96204565       0.96170539       0.10019221E-02  -0.53155339E-05
  7826.0090        1.2600374        1.2598186       0.96108648       0.96086748       0.93533516E-03   0.51976275E-06
  7831.5390        1.2648954        1.2655003       0.95939850       0.96000328       0.10075927E-02   0.21069694E-04
  7836.9290        1.2710403        1.2710986       0.95910028       0.95915844       0.11654162E-02   0.61294969E-05
  7842.4690        1.2776334        1.2769152       0.95900620       0.95828781       0.10745881E-02  -0.20415245E-04
  7848.0290        1.2829682        1.2828167       0.95756380       0.95741206       0.93880699E-03   0.96499351E-06
  7853.4390        1.2879321        1.2886208       0.95586983       0.95655837       0.10851741E-02   0.23329640E-04
  7859.0090        1.2948835        1.2946607       0.95590110       0.95567816       0.11949664E-02   0.12843988E-05
  7864.5890        1.3012560        1.3007769       0.95527463       0.95479541       0.10994951E-02  -0.10069547E-04
  7870.1690        1.3071538        1.3069591       0.95410693       0.95391205       0.10825903E-02  -0.74282241E-06
  7881.5090        1.3195734        1.3197275       0.95196249       0.95211639       0.10869266E-02  -0.18557645E-05
  7887.1290        1.3255881        1.3261577       0.95065752       0.95122699       0.10511165E-02   0.15200612E-05
  7892.7390        1.3313774        1.3326447       0.94907292       0.95033997       0.11039969E-02   0.13695334E-04
  7898.5190        1.3381626        1.3393997       0.94819034       0.94942729       0.12071064E-02   0.13309186E-04
  7904.1490        1.3451505        1.3460497       0.94764084       0.94853985       0.12558547E-02   0.55101920E-05
  7909.9490        1.3525170        1.3529733       0.94717150       0.94762760       0.12700879E-02   0.24539981E-05
