# XDI/1.0 Athena/0.9.26
# Element.edge:                  K
# Element.symbol:                Fe
# Column.1:                      energy eV
# Column.2:                      norm
# Column.3:                      nbkg
# Column.4:                      flat
# Column.5:                      fbkg
# Column.6:                      nder
# Column.7:                      nsec
# Athena.e0:                     7120.140
# Athena.eshift:                 -0.753
# Athena.rbkg:                   1
# Athena.importance:             1
# Athena.standard:               None
# Athena.bkg_kweight:            2
# Athena.edge_step:              0.3816654
# Athena.fixed_step:             no
# Athena.pre_edge_range:         -215 -20
# Athena.pre_edge_line:          11.504112 - 0.0012155 * E
# Athena.normalization_range:    63.870 382.040
# Athena.post_edge_polynomial:   33.637398 - 0.00716042 * E + 4.05887856e-007 * E^2 + 0 * E^3
# Athena.spline_range_energy:    0.000 791.795
# Athena.clamps:                 0 24
# Athena.spline_range_k:         0.000 14.416
# Athena.kweight:                2
# Athena.window:                 hanning
# Athena.phase_correction:       no
# Athena.k_range:                3 9
# Athena.dk:                     1
# Athena.r_range:                1 3
# Athena.dr:                     0.0
# Athena.window:                 hanning
# Athena.plot_multiplier:        1
# Athena.y_offset:               0
# ///
#------------------------
#   e         norm       nbkg       flat       fbkg       nder       nsec
  6860.3000      -0.19050902E-02  -0.19050905E-02  -0.19050905E-02  -0.19050905E-02   0.36714179E-02  -0.25592238E-03
  6870.2700       0.34698946E-01   0.34698951E-01   0.34698951E-01   0.34698951E-01   0.11198717E-02  -0.22974529E-03
  6880.2600       0.20447549E-01   0.20447552E-01   0.20447552E-01   0.20447552E-01  -0.91429814E-03  -0.78867693E-04
  6890.2900       0.16394697E-01   0.16394699E-01   0.16394699E-01   0.16394699E-01  -0.45905949E-03   0.20111037E-04
  6900.3500       0.11225044E-01   0.11225046E-01   0.11225046E-01   0.11225046E-01  -0.51026740E-03   0.25121937E-04
  6910.3300       0.61689386E-02   0.61689394E-02   0.61689394E-02   0.61689394E-02   0.44384122E-04   0.24316284E-04
  6920.3300       0.12111839E-01   0.12111841E-01   0.12111841E-01   0.12111841E-01  -0.24428045E-04  -0.25394823E-04
  6930.2600       0.56820877E-02   0.56820884E-02   0.56820884E-02   0.56820884E-02  -0.46173471E-03  -0.99052003E-05
  6940.3200       0.28817622E-02   0.28817626E-02   0.28817626E-02   0.28817626E-02  -0.22243300E-03   0.96716669E-05
  6950.3100       0.12223061E-02   0.12223062E-02   0.12223062E-02   0.12223062E-02  -0.26781778E-03  -0.33690247E-05
  6960.3200      -0.24745934E-02  -0.24745938E-02  -0.24745937E-02  -0.24745938E-02  -0.28981349E-03   0.80368456E-05
  6970.3700      -0.45913526E-02  -0.45913532E-02  -0.45913532E-02  -0.45913532E-02  -0.10659866E-03   0.66364550E-05
  6980.3300      -0.46076326E-02  -0.46076333E-02  -0.46076332E-02  -0.46076333E-02  -0.15701803E-03   0.33010898E-05
  6990.3100      -0.77222921E-02  -0.77222931E-02  -0.77222931E-02  -0.77222931E-02  -0.40774930E-04   0.13064429E-04
  7000.3300      -0.54231312E-02  -0.54231320E-02  -0.54231319E-02  -0.54231320E-02   0.10427054E-03   0.11446539E-05
  7010.2700      -0.56410520E-02  -0.56410528E-02  -0.56410527E-02  -0.56410528E-02  -0.17927638E-04  -0.13259106E-04
  7020.3500      -0.57820425E-02  -0.57820433E-02  -0.57820433E-02  -0.57820433E-02  -0.16117676E-03   0.41678224E-05
  7030.3400      -0.88758696E-02  -0.88758708E-02  -0.88758708E-02  -0.88758708E-02   0.65720559E-04   0.16322303E-04
  7040.3600      -0.44669742E-02  -0.44669748E-02  -0.44669747E-02  -0.44669748E-02   0.16543252E-03  -0.17046652E-05
  7050.3000      -0.55738364E-02  -0.55738372E-02  -0.55738372E-02  -0.55738372E-02   0.31695441E-04  -0.97232307E-05
  7060.2600      -0.38362349E-02  -0.38362354E-02  -0.38362354E-02  -0.38362354E-02  -0.28059766E-04  -0.81459742E-04
  7061.3200      -0.58830551E-02  -0.58830559E-02  -0.58830558E-02  -0.58830559E-02  -0.86599091E-03   0.13186477E-02
  7061.9100      -0.52651199E-02  -0.52651206E-02  -0.52651206E-02  -0.52651206E-02   0.21477089E-02   0.48297835E-02
  7062.4900      -0.33702357E-02  -0.33702361E-02  -0.33702361E-02  -0.33702361E-02   0.47848558E-02  -0.87625841E-03
  7063.0800       0.33316134E-03   0.33316134E-03   0.33316139E-03   0.33316134E-03   0.11224866E-02  -0.55857450E-02
  7063.6700      -0.20457015E-02  -0.20457018E-02  -0.20457018E-02  -0.20457018E-02  -0.18063234E-02  -0.15977216E-02
  7064.2600      -0.17983002E-02  -0.17983005E-02  -0.17983005E-02  -0.17983005E-02  -0.76282499E-03  -0.37968484E-03
  7064.8500      -0.29458350E-02  -0.29458354E-02  -0.29458354E-02  -0.29458354E-02  -0.22543515E-02  -0.72050442E-03
  7065.4300      -0.44358915E-02  -0.44358921E-02  -0.44358920E-02  -0.44358921E-02  -0.16058152E-02   0.45847482E-02
  7066.0200      -0.48246388E-02  -0.48246394E-02  -0.48246394E-02  -0.48246394E-02   0.31098040E-02   0.35966715E-02
  7066.6100      -0.76632277E-03  -0.76632292E-03  -0.76632287E-03  -0.76632292E-03   0.26382572E-02  -0.48052871E-02
  7067.2000      -0.17114953E-02  -0.17114955E-02  -0.17114955E-02  -0.17114955E-02  -0.25604348E-02  -0.25748234E-02
  7067.7900      -0.37876359E-02  -0.37876364E-02  -0.37876363E-02  -0.37876364E-02  -0.40003447E-03   0.37410504E-02
  7068.3700      -0.21795356E-02  -0.21795359E-02  -0.21795359E-02  -0.21795359E-02   0.18165942E-02   0.23031745E-03
  7068.9600      -0.16622207E-02  -0.16622209E-02  -0.16622209E-02  -0.16622209E-02  -0.13056306E-03  -0.34378380E-02
  7069.5500      -0.23336000E-02  -0.23336004E-02  -0.23336003E-02  -0.23336004E-02  -0.22400547E-02   0.13331114E-03
  7070.1400      -0.43054852E-02  -0.43054858E-02  -0.43054857E-02  -0.43054858E-02   0.26744087E-04   0.46407385E-02
  7070.7300      -0.23020420E-02  -0.23020423E-02  -0.23020423E-02  -0.23020423E-02   0.32360168E-02   0.83952335E-03
  7071.3200      -0.48698540E-03  -0.48698550E-03  -0.48698546E-03  -0.48698550E-03   0.10173816E-02  -0.42896606E-02
  7071.9100      -0.11015317E-02  -0.11015318E-02  -0.11015318E-02  -0.11015318E-02  -0.18257828E-02  -0.26175689E-02
  7072.5000      -0.26414091E-02  -0.26414095E-02  -0.26414094E-02  -0.26414095E-02  -0.20713496E-02   0.12161889E-02
  7073.0800      -0.35250107E-02  -0.35250112E-02  -0.35250112E-02  -0.35250112E-02  -0.40284177E-03   0.26550849E-02
  7073.6700      -0.31127340E-02  -0.31127344E-02  -0.31127344E-02  -0.31127344E-02   0.10350997E-02   0.23085193E-02
  7074.2600      -0.23035931E-02  -0.23035935E-02  -0.23035934E-02  -0.23035935E-02   0.23212110E-02  -0.68266350E-03
  7074.8500      -0.37370492E-03  -0.37370501E-03  -0.37370496E-03  -0.37370501E-03   0.22955674E-03  -0.22957289E-02
  7075.4400      -0.20327162E-02  -0.20327165E-02  -0.20327164E-02  -0.20327165E-02  -0.38774902E-03  -0.11108394E-02
  7076.0300      -0.83124876E-03  -0.83124891E-03  -0.83124887E-03  -0.83124891E-03  -0.10812337E-02  -0.65961650E-03
  7076.6200      -0.33085720E-02  -0.33085725E-02  -0.33085724E-02  -0.33085725E-02  -0.11660965E-02   0.26186529E-02
  7077.2100      -0.22072426E-02  -0.22072429E-02  -0.22072429E-02  -0.22072429E-02   0.20087767E-02   0.13021681E-02
  7077.8000      -0.93821549E-03  -0.93821566E-03  -0.93821561E-03  -0.93821566E-03   0.37046186E-03  -0.21790383E-02
  7078.3900      -0.17700976E-02  -0.17700979E-02  -0.17700978E-02  -0.17700979E-02  -0.56248856E-03  -0.71337610E-03
  7078.9800      -0.16019520E-02  -0.16019522E-02  -0.16019522E-02  -0.16019522E-02  -0.47132193E-03  -0.81762235E-03
  7079.5700      -0.23262575E-02  -0.23262578E-02  -0.23262578E-02  -0.23262578E-02  -0.15272829E-02   0.19599682E-02
  7080.1600      -0.34041459E-02  -0.34041463E-02  -0.34041463E-02  -0.34041463E-02   0.18414405E-02   0.33110877E-02
  7080.7500      -0.15335772E-03  -0.15335778E-03  -0.15335774E-03  -0.15335778E-03   0.23798006E-02  -0.41189444E-02
  7081.3400      -0.59598117E-03  -0.59598129E-03  -0.59598124E-03  -0.59598129E-03  -0.30189139E-02  -0.29535783E-02
  7081.9400      -0.37458652E-02  -0.37458658E-02  -0.37458657E-02  -0.37458658E-02  -0.11349576E-02   0.47108566E-02
  7082.5300      -0.19465807E-02  -0.19465810E-02  -0.19465810E-02  -0.19465810E-02   0.25870054E-02   0.24070006E-02
  7083.1200      -0.69319885E-03  -0.69319898E-03  -0.69319894E-03  -0.69319898E-03   0.17053032E-02  -0.11283693E-02
  7083.7100       0.65677024E-04   0.65676988E-04   0.65677033E-04   0.65676988E-04   0.12555297E-02  -0.25233168E-02
  7084.3000       0.78832618E-03   0.78832624E-03   0.78832628E-03   0.78832624E-03  -0.12722107E-02  -0.50695888E-03
  7084.8900      -0.14355316E-02  -0.14355318E-02  -0.14355318E-02  -0.14355318E-02   0.65731820E-03   0.46743579E-02
  7085.4800       0.15639617E-02   0.15639618E-02   0.15639619E-02   0.15639618E-02   0.42435316E-02  -0.12772330E-02
  7086.0700       0.35718357E-02   0.35718361E-02   0.35718362E-02   0.35718361E-02  -0.84981679E-03  -0.49461602E-02
  7086.6600       0.56117785E-03   0.56117788E-03   0.56117792E-03   0.56117788E-03  -0.15929374E-02   0.20588704E-02
  7087.2600       0.16762401E-02   0.16762403E-02   0.16762404E-02   0.16762403E-02   0.16002390E-02   0.30686246E-03
  7087.8500       0.24654622E-02   0.24654625E-02   0.24654626E-02   0.24654625E-02  -0.12277711E-02  -0.71138044E-03
  7088.4400       0.22747022E-03   0.22747021E-03   0.22747025E-03   0.22747021E-03   0.76081007E-03   0.19258959E-02
  7089.0300       0.33632181E-02   0.33632185E-02   0.33632186E-02   0.33632185E-02   0.10447860E-02  -0.13973584E-02
  7089.6200       0.14603177E-02   0.14603179E-02   0.14603179E-02   0.14603179E-02  -0.88807280E-03   0.92241196E-03
  7090.2200       0.23064115E-02   0.23064117E-02   0.23064118E-02   0.23064117E-02   0.21424563E-02   0.15957126E-02
  7090.8100       0.40098407E-02   0.40098411E-02   0.40098412E-02   0.40098411E-02   0.10108251E-02  -0.23962329E-02
  7091.4000       0.34991851E-02   0.34991856E-02   0.34991856E-02   0.34991856E-02  -0.68509857E-03  -0.17563133E-03
  7091.9900       0.32014244E-02   0.32014247E-02   0.32014248E-02   0.32014247E-02   0.80358017E-03   0.12022494E-02
  7092.5900       0.44554456E-02   0.44554461E-02   0.44554461E-02   0.44554461E-02   0.74557820E-03   0.23864567E-03
  7093.1800       0.40886624E-02   0.40886629E-02   0.40886629E-02   0.40886629E-02   0.10875685E-02   0.19484341E-03
  7093.7700       0.57387764E-02   0.57387771E-02   0.57387771E-02   0.57387771E-02   0.97549341E-03  -0.14930471E-02
  7094.3600       0.52397446E-02   0.52397453E-02   0.52397453E-02   0.52397453E-02  -0.67422710E-03  -0.10134488E-02
  7094.9600       0.49364462E-02   0.49364467E-02   0.49364468E-02   0.49364467E-02  -0.23051065E-03   0.19872325E-02
  7095.5500       0.49654370E-02   0.49654376E-02   0.49654376E-02   0.49654376E-02   0.16905796E-02   0.90830343E-03
  7096.1400       0.69313301E-02   0.69313309E-02   0.69313310E-02   0.69313309E-02   0.84128740E-03  -0.29301083E-02
  7096.7400       0.59665690E-02   0.59665697E-02   0.59665697E-02   0.59665697E-02  -0.17962492E-02  -0.28568570E-03
  7097.3300       0.47937935E-02   0.47937941E-02   0.47937941E-02   0.47937941E-02   0.50132141E-03   0.30213984E-02
  7097.9200       0.65581282E-02   0.65581290E-02   0.65581291E-02   0.65581290E-02   0.17690009E-02  -0.28554560E-03
  7098.5200       0.68989045E-02   0.68989054E-02   0.68989054E-02   0.68989054E-02   0.16152214E-03  -0.19172101E-02
  7099.1100       0.67503396E-02   0.67503404E-02   0.67503405E-02   0.67503404E-02  -0.51247917E-03   0.14630978E-03
  7099.7100       0.62890543E-02   0.62890551E-02   0.62890551E-02   0.62890551E-02   0.33563078E-03   0.13111732E-02
  7100.3000       0.71497402E-02   0.71497411E-02   0.71497411E-02   0.71497411E-02   0.10478170E-02   0.12381781E-02
  7100.8900       0.75254784E-02   0.75254793E-02   0.75254793E-02   0.75254793E-02   0.17966809E-02   0.89192191E-03
  7101.4900       0.92877905E-02   0.92877917E-02   0.92877917E-02   0.92877917E-02   0.21092041E-02  -0.17273133E-02
  7102.0800       0.10035431E-01   0.10035432E-01   0.10035432E-01   0.10035432E-01  -0.25882187E-03  -0.23077580E-02
  7102.6800       0.89797925E-02   0.89797936E-02   0.89797937E-02   0.89797936E-02  -0.63702796E-03   0.16210200E-02
  7103.2700       0.92773679E-02   0.92773691E-02   0.92773691E-02   0.92773691E-02   0.16701920E-02   0.36300822E-02
  7103.8700       0.10967321E-01   0.10967322E-01   0.10967322E-01   0.10967322E-01   0.36827698E-02  -0.67596047E-03
  7104.4600       0.13659864E-01   0.13659866E-01   0.13659866E-01   0.13659866E-01   0.86579900E-03  -0.41299828E-02
  7105.0500       0.11988964E-01   0.11988965E-01   0.11988965E-01   0.11988965E-01  -0.11906099E-02   0.97665887E-03
  7105.6500       0.12243038E-01   0.12243040E-01   0.12243040E-01   0.12243040E-01   0.20280231E-02   0.30478296E-02
  7106.2400       0.14402311E-01   0.14402313E-01   0.14402313E-01   0.14402313E-01   0.24363073E-02  -0.79416229E-03
  7106.8400       0.15142244E-01   0.15142246E-01   0.15142246E-01   0.15142246E-01   0.10829699E-02   0.16247444E-03
  7107.4300       0.15691045E-01   0.15691047E-01   0.15691047E-01   0.15691047E-01   0.26296519E-02   0.20988054E-02
  7108.0300       0.18271530E-01   0.18271532E-01   0.18271532E-01   0.18271532E-01   0.35805483E-02   0.34204618E-03
  7108.6300       0.19987703E-01   0.19987706E-01   0.19987706E-01   0.19987706E-01   0.30401073E-02   0.16714390E-02
  7109.2200       0.21889257E-01   0.21889260E-01   0.21889260E-01   0.21889260E-01   0.55695607E-02   0.53955570E-02
  7109.8200       0.26615481E-01   0.26615484E-01   0.26615484E-01   0.26615484E-01   0.94608201E-02   0.10720622E-01
  7110.4100       0.33147633E-01   0.33147638E-01   0.33147638E-01   0.33147638E-01   0.18327101E-01   0.13656071E-01
  7111.0100       0.48424731E-01   0.48424737E-01   0.48424737E-01   0.48424737E-01   0.25711544E-01   0.39292550E-02
  7111.6000       0.63744371E-01   0.63744380E-01   0.63744380E-01   0.63744380E-01   0.23002914E-01  -0.13819430E-01
  7112.2000       0.75798199E-01   0.75798209E-01   0.75798209E-01   0.75798209E-01   0.92664223E-02  -0.22907276E-01
  7112.8000       0.74864078E-01   0.74864088E-01   0.74864088E-01   0.74864088E-01  -0.44858170E-02  -0.12902489E-01
  7113.3900       0.70460077E-01   0.70460086E-01   0.70460086E-01   0.70460086E-01  -0.60875393E-02   0.37721265E-03
  7113.9900       0.67619906E-01   0.67619915E-01   0.67619915E-01   0.67619915E-01  -0.40369340E-02   0.81756960E-02
  7114.5900       0.65615756E-01   0.65615764E-01   0.65615764E-01   0.65615764E-01   0.37232959E-02   0.16179328E-01
  7115.1800       0.72050628E-01   0.72050638E-01   0.72050638E-01   0.72050638E-01   0.15216466E-01   0.20977094E-01
  7115.7800       0.83723351E-01   0.83723362E-01   0.83723362E-01   0.83723362E-01   0.28686038E-01   0.35076546E-01
  7116.3800       0.10647387       0.10647389       0.10647389       0.10647389       0.57308322E-01   0.54105251E-01
  7116.9700       0.15192025       0.15192027       0.15192027       0.15192027       0.93071287E-01   0.59531514E-01
  7117.5700       0.21722870       0.21722873       0.21722873       0.21722873       0.12815082       0.60765233E-01
  7118.1700       0.30570124       0.30570128       0.30570128       0.30570128       0.16598957       0.51145535E-01
  7118.7600       0.41475629       0.41475634       0.41475634       0.41475634       0.18901401       0.70786163E-02
  7119.3600       0.53062792       0.53062798       0.53062798       0.53062798       0.17441312      -0.43083502E-01
  7119.9600       0.62405203       0.62405211       0.62397415       0.62397415       0.13731381      -0.61037878E-01
  7120.5600       0.69540449        1.7096827       0.69558579        1.7098639       0.10116767      -0.44720280E-01
  7121.1500       0.74444156        1.6475427       0.74487698        1.6479780       0.84096675E-01  -0.14613615E-01
  7121.7500       0.79547953        1.5879615       0.79617262        1.5886545       0.83777465E-01   0.41466057E-02
  7122.3500       0.84497451        1.5319149       0.84592451        1.5328648       0.89072602E-01   0.15490143E-01
  7122.9500       0.90236665        1.4792945       0.90357279        1.4805005       0.10236564       0.20419944E-01
  7123.5400       0.96678962        1.4307870       0.96824688        1.4322441       0.11337234       0.54901338E-02
  7124.1400        1.0372797        1.3846411        1.0389916        1.3863528       0.10889890      -0.15344283E-01
  7124.7400        1.0974683        1.3415979        1.0994340        1.3435635       0.94959196E-01  -0.33062253E-01
  7125.3400        1.1512308        1.3015491        1.1534496        1.3037678       0.69224192E-01  -0.45864146E-01
  7125.9400        1.1805373        1.2643863        1.1830085        1.2668573       0.39922221E-01  -0.34560552E-01
  7126.5400        1.1991374        1.2300009        1.2018601        1.2327234       0.27751530E-01  -0.20824398E-01
  7127.1300        1.2135616        1.1987920        1.2165309        1.2017611       0.15141188E-01  -0.22276797E-01
  7127.7300        1.2171554        1.1695946        1.2203748        1.1728138       0.12421409E-02  -0.13975484E-01
  7128.3300        1.2150522        1.1428514        1.2185208        1.1463198      -0.16293927E-02  -0.50243698E-02
  7128.9300        1.2152002        1.1184538        1.2189173        1.1221707      -0.47871028E-02  -0.38315150E-02
  7129.5300        1.2093077        1.0962935        1.2132725        1.1002581      -0.62272107E-02  -0.56706734E-02
  7130.1300        1.2077275        1.0762620        1.2119393        1.0804736      -0.11591911E-01  -0.14604704E-01
  7130.7300        1.1953974        1.0582510        1.1998554        1.0627088      -0.23752855E-01  -0.82137412E-02
  7131.3300        1.1792241        1.0421520        1.1839275        1.0468552      -0.21448400E-01   0.15149975E-02
  7131.9300        1.1696593        1.0278566        1.1746074        1.0328045      -0.21934858E-01  -0.12322295E-02
  7132.5300        1.1529023        1.0152564        1.1580943        1.0204483      -0.22927076E-01  -0.14568620E-02
  7133.1300        1.1421468        1.0042430        1.1475820        1.0096780      -0.23683093E-01   0.14037135E-02
  7133.7300        1.1244826       0.99470803        1.1301601        1.0003854      -0.21242620E-01   0.62357681E-02
  7134.3300        1.1166557       0.98654300        1.1225748       0.99246197      -0.16200171E-01   0.34906263E-02
  7134.9300        1.1050423       0.97963953        1.1112023       0.98579935      -0.17053868E-01  -0.10732947E-02
  7135.5300        1.0961910       0.97388921        1.1025911       0.98028910      -0.17488125E-01   0.12268434E-03
  7136.1300        1.0840566       0.96918362        1.0906959       0.97582283      -0.16906647E-01   0.26509004E-02
  7136.7300        1.0759031       0.96541436        1.0827810       0.97229211      -0.14307044E-01   0.19777470E-02
  7137.3300        1.0668881       0.96247301        1.0740038       0.96958854      -0.14533350E-01  -0.12572227E-02
  7137.9300        1.0584630       0.96025116        1.0658157       0.96760371      -0.15815711E-01   0.14292726E-02
  7138.5300        1.0479093       0.95864041        1.0554982       0.96622920      -0.12818223E-01   0.47514215E-02
  7139.1300        1.0430812       0.95753232        1.0509056       0.96535660      -0.10114006E-01   0.46021763E-02
  7139.7300        1.0357725       0.95681851        1.0438316       0.96487750      -0.72956117E-02   0.94755427E-03
  7140.3300        1.0343264       0.95639055        1.0426195       0.96468349      -0.89769406E-02  -0.19782109E-02
  7140.9300        1.0250002       0.95614003        1.0335264       0.96466615      -0.96694648E-02  -0.11965080E-03
  7141.5300        1.0227231       0.95596000        1.0314818       0.96471855      -0.91205215E-02  -0.33809218E-02
  7142.1300        1.0140555       0.95579075        1.0230459       0.96478094      -0.13726571E-01  -0.53662183E-02
  7142.7400        1.0061139       0.95562623        1.0153390       0.96485116      -0.15613646E-01  -0.23009057E-02
  7143.3400       0.99516302       0.95547176        1.0046182       0.96492680      -0.16510667E-01  -0.45212729E-03
  7143.9400       0.98630114       0.95532448       0.99598564       0.96500886      -0.16156198E-01   0.97909772E-03
  7144.5400       0.97577558       0.95518430       0.98568867       0.96509726      -0.15335749E-01   0.25337416E-02
  7145.1400       0.96789824       0.95505114       0.97803913       0.96519191      -0.13115708E-01   0.19015536E-02
  7145.7400       0.96003673       0.95492489       0.97040467       0.96529271      -0.13053885E-01  -0.28764043E-02
  7146.3500       0.95210303       0.95480354       0.96270102       0.96540140      -0.16596158E-01  -0.43895682E-02
  7146.9500       0.93995538       0.95469097       0.95077887       0.96551433      -0.18365263E-01  -0.51354514E-03
  7147.5500       0.93006472       0.95458503       0.94111294       0.96563314      -0.17212412E-01   0.19242226E-02
  7148.1500       0.91930049       0.95448565       0.93057268       0.96575773      -0.16056196E-01   0.48527549E-02
  7148.7500       0.91079728       0.95439273       0.92229268       0.96588801      -0.11389106E-01   0.51074380E-02
  7149.3600       0.90551967       0.95430479       0.91724121       0.96602621      -0.98761956E-02   0.11824737E-02
  7149.9600       0.89884709       0.95422461       0.91079029       0.96616769      -0.99583128E-02   0.17693666E-02
  7150.5600       0.89356969       0.95415062       0.90573379       0.96631460      -0.77529557E-02   0.34956472E-02
  7151.1700       0.88946601       0.95408163       0.90185390       0.96646941      -0.57285797E-02  -0.18585074E-02
  7151.7700       0.88663811       0.95401983       0.89924535       0.96662695      -0.10001750E-01  -0.15246394E-02
  7152.3700       0.87746391       0.95396393       0.89028973       0.96678964      -0.75581470E-02   0.89714944E-02
  7152.9700       0.87756833       0.95391385       0.89061198       0.96695737       0.76404359E-03   0.60552424E-02
  7153.5800       0.87838841       0.95386879       0.89165271       0.96713299      -0.23130374E-03  -0.25914108E-02
  7154.1800       0.87728846       0.95383015       0.89076904       0.96731062      -0.23715635E-02  -0.31907352E-02
  7154.7800       0.87554253       0.95379705       0.88923862       0.96749303      -0.40601859E-02   0.44043434E-02
  7155.3900       0.87237563       0.95376898       0.88629004       0.96768328       0.29576920E-02   0.95269192E-02
  7155.9900       0.87912134       0.95374677       0.89324971       0.96787503       0.74673863E-02   0.19138162E-03
  7156.6000       0.88141117       0.95372958       0.89575629       0.96807459       0.31892638E-02  -0.55563516E-02
  7157.2000       0.88298035       0.95371788       0.89753789       0.96827531       0.74420080E-03  -0.28189297E-02
  7157.8000       0.88230421       0.95371126       0.89707341       0.96848035      -0.19345185E-03   0.16280063E-02
  7158.4100       0.88274627       0.95370964       0.89772987       0.96869312       0.27140885E-02   0.43823576E-02
  7159.0100       0.88558826       0.95371297       0.90078197       0.96890657       0.51092009E-02   0.10578801E-02
  7159.6200       0.88892840       0.95372129       0.90433495       0.96912771       0.39941234E-02  -0.86744365E-03
  7160.2200       0.89042115       0.95373421       0.90603626       0.96934920       0.40595941E-02   0.18747219E-02
  7160.8300       0.89384051       0.95375207       0.90966688       0.96957833       0.62625369E-02   0.10850465E-02
  7161.4300       0.89799882       0.95377421       0.91403221       0.96980749       0.53725004E-02  -0.74577452E-03
  7162.0300       0.90028751       0.95380077       0.91652717       0.97004031       0.53676075E-02  -0.11759990E-02
  7162.6400       0.90449362       0.95383223       0.92094219       0.97028068       0.39495416E-02   0.32741557E-03
  7163.2400       0.90506646       0.95386745       0.92171974       0.97052061       0.57637803E-02   0.21537908E-02
  7163.8500       0.91146780       0.95390751       0.92832842       0.97076801       0.65556285E-02  -0.12181354E-02
  7164.4500       0.91299877       0.95395101       0.93006256       0.97101469       0.42898365E-02   0.62031140E-03
  7165.0600       0.91665850       0.95399930       0.93392806       0.97126875       0.73062053E-02   0.40727303E-03
  7165.6700       0.92191234       0.95405160       0.93938688       0.97152603       0.47867096E-02  -0.93312810E-03
  7166.2700       0.92245042       0.95410686       0.94012581       0.97178213       0.61771203E-02   0.32605060E-03
  7166.8800       0.92938665       0.95416682       0.94726546       0.97204550       0.51812308E-02  -0.20111906E-02
  7167.4800       0.92871971       0.95422942       0.94679781       0.97230741       0.37435797E-02   0.41994494E-03
  7168.0900       0.93391638       0.95429666       0.95219633       0.97257649       0.56893642E-02  -0.25775553E-02
  7168.6900       0.93560384       0.95436624       0.95408154       0.97284383       0.62473772E-03  -0.81754389E-03
  7169.3000       0.93467232       0.95444039       0.95335029       0.97311824       0.47001361E-02   0.55292000E-02
  7169.9100       0.94133800       0.95451787       0.96021546       0.97339520       0.73703618E-02  -0.67343565E-03
  7170.5100       0.94359045       0.95459724       0.96266335       0.97367001       0.38852789E-02   0.27588493E-04
  7171.1200       0.94603919       0.95468105       0.96530999       0.97395173       0.74037438E-02   0.40900968E-02
  7171.7300       0.95262302       0.95476791       0.97209094       0.97423570       0.88751970E-02   0.12077875E-02
  7172.3300       0.95677818       0.95485622       0.97643921       0.97451713       0.88651667E-02  -0.26860258E-02
  7172.9400       0.96334987       0.95494885       0.98320645       0.97480530       0.56251057E-02  -0.42787253E-02
  7173.5400       0.96358456       0.95504264       0.98363271       0.97509067       0.36879091E-02  -0.10122045E-03
  7174.1500       0.96781224       0.95514065       0.98805437       0.97538265       0.55026290E-02  -0.71617858E-03
  7174.7600       0.97029776       0.95524123       0.99073308       0.97567641       0.28141713E-02  -0.32097302E-02
  7175.3700       0.97124553       0.95534427       0.99187324       0.97597186       0.15867582E-02   0.10026781E-02
  7175.9700       0.97221774       0.95544795       0.99303392       0.97626401       0.40274117E-02   0.21696322E-02
  7176.5800       0.97611870       0.95555563       0.99712570       0.97656250       0.42120131E-02  -0.27499325E-02
  7177.1900       0.97735640       0.95566548       0.99855343       0.97686239       0.67249413E-03  -0.30317086E-02
  7177.8000       0.97693914       0.95577743       0.99832542       0.97716358       0.51332856E-03   0.98578345E-03
  7178.4000       0.97797752       0.95588949       0.99954917       0.97746101       0.18652921E-02   0.28002797E-02
  7179.0100       0.97919615       0.95600530        1.0009555       0.97776449       0.39016670E-02   0.30787539E-02
  7179.6200       0.98273756       0.95612291        1.0046838       0.97806898       0.56213718E-02  -0.31480419E-02
  7180.2300       0.98605422       0.95624222        1.0081865       0.97837439       0.61055862E-04  -0.62324870E-02
  7180.8300       0.98281144       0.95636116        1.0051260       0.97867558      -0.19199374E-02   0.80359809E-03
  7181.4400       0.98373110       0.95648357        1.0062302       0.97898252       0.10334096E-02   0.21292723E-02
  7182.0500       0.98407220       0.95660741        1.0067550       0.97929008       0.67777471E-03   0.11568422E-03
  7185.0900       0.98620497       0.95724237        1.0097916       0.98082887       0.14556570E-02   0.77001775E-03
  7185.7000       0.98938534       0.95737268        1.0131510       0.98113818       0.34883395E-02  -0.73489371E-03
  7186.3100       0.99046075       0.95750374        1.0144046       0.98144744       0.55908662E-03  -0.40631166E-02
  7186.9200       0.99006743       0.95763545        1.0141887       0.98175656      -0.14686627E-02  -0.96802546E-03
  7187.5300       0.98866898       0.95776772        1.0129668       0.98206544      -0.62190444E-03   0.49974494E-02
  7188.1400       0.98930871       0.95790044        1.0137824       0.98237398       0.46282255E-02   0.36559399E-02
  7188.7500       0.99431542       0.95803352        1.0189641       0.98268210       0.38383423E-02  -0.57947726E-02
  7189.3600       0.99399148       0.95816686        1.0188144       0.98298969      -0.24413970E-02  -0.55469112E-02
  7189.9700       0.99133691       0.95830038        1.0163333       0.98329666      -0.29288894E-02   0.20927154E-02
  7190.5800       0.99041824       0.95843396        1.0155873       0.98360290       0.11171569E-03   0.29039012E-02
  7191.1900       0.99147320       0.95856752        1.0168141       0.98390833       0.61386998E-03  -0.87477335E-03
  7191.8000       0.99116716       0.95870096        1.0166792       0.98421285      -0.95550779E-03  -0.75408526E-03
  7192.4100       0.99030748       0.95883419        1.0159898       0.98451636      -0.30611403E-03   0.27713412E-03
  7193.0200       0.99079370       0.95896710        1.0166455       0.98481877      -0.61740416E-03  -0.48205436E-03
  7193.6300       0.98955425       0.95909960        1.0155748       0.98511997      -0.89422035E-03  -0.10246586E-02
  7194.2400       0.98970275       0.95923159        1.0158912       0.98541988      -0.18674876E-02  -0.26470850E-02
  7194.8500       0.98727592       0.95936298        1.0136314       0.98571839      -0.41236640E-02   0.68106040E-03
  7195.4600       0.98467188       0.95949368        1.0111937       0.98601541      -0.10365939E-02   0.20187546E-02
  7196.0700       0.98601127       0.95962358        1.0126987       0.98631085      -0.16607833E-02  -0.43113294E-03
  7196.6800       0.98264573       0.95975258        1.0094979       0.98660460      -0.15625761E-02   0.16612031E-02
  7197.2900       0.98410493       0.95988060        1.0111210       0.98689658       0.36588447E-03   0.92758669E-04
  7197.9000       0.98309210       0.96000754        1.0102714       0.98718667      -0.14494105E-02  -0.20973795E-02
  7198.5100       0.98233665       0.96013329        1.0096783       0.98747480      -0.21929185E-02  -0.98695444E-03
  7199.1300       0.98039481       0.96025980        1.0079007       0.98776553      -0.26633645E-02   0.95844179E-04
  7199.7400       0.97906071       0.96038288        1.0067273       0.98804939      -0.20750301E-02   0.47049553E-03
  7200.3500       0.97786328       0.96050449        1.0056899       0.98833099      -0.20893600E-02  -0.34814575E-03
  7200.9600       0.97651169       0.96062454        1.0044975       0.98861022      -0.24997679E-02  -0.16954009E-02
  7201.5700       0.97481356       0.96074292        1.0029578       0.98888701      -0.41577490E-02   0.29089958E-02
  7202.1800       0.97143924       0.96085954       0.99974106       0.98916124       0.10492069E-02   0.82421645E-02
  7202.8000       0.97610409       0.96097617        1.0045653       0.98943725       0.59801134E-02  -0.11655401E-02
  7203.4100       0.97879478       0.96108894        1.0074120       0.98970604      -0.38440739E-03  -0.10505877E-01
  7204.0200       0.97563511       0.96119967        1.0044076       0.98997199      -0.68370560E-02  -0.24285652E-02
  7204.6300       0.97045357       0.96130825       0.99938045       0.99023501      -0.33472570E-02   0.42941399E-02
  7205.2400       0.97155145       0.96141459        1.0006320       0.99049499      -0.15982053E-02  -0.20688419E-03
  7205.8600       0.96848778       0.96152030       0.99772364       0.99075604      -0.36017245E-02  -0.21504019E-03
  7206.4700       0.96712133       0.96162197       0.99650925       0.99100976      -0.18627048E-02   0.23081372E-02
  7207.0800       0.96621528       0.96172134       0.99575444       0.99126038      -0.78579718E-03  -0.89733111E-03
  7207.7000       0.96615480       0.96182001       0.99584689       0.99151197      -0.29664220E-02   0.32010854E-03
  7208.3100       0.96256658       0.96191481       0.99240832       0.99175643      -0.39206368E-03   0.32848894E-02
  7208.9200       0.96567649       0.96200737       0.99566709       0.99199786       0.10411430E-02  -0.42171540E-03
  7209.5300       0.96383677       0.96209771       0.99397545       0.99223627      -0.90655647E-03  -0.16996638E-02
  7210.1500       0.96456142       0.96218727       0.99484980       0.99247552      -0.10494435E-02  -0.15376438E-02
  7210.7600       0.96254596       0.96227317       0.99298081       0.99270790      -0.27978583E-02  -0.17233574E-02
  7211.3700       0.96114803       0.96235691       0.99172857       0.99293733      -0.31519394E-02   0.22466050E-02
  7211.9900       0.95866907       0.96243982       0.98939687       0.99316750      -0.34534161E-04   0.55903045E-02
  7212.6000       0.96110556       0.96251925       0.99197745       0.99339102       0.37241350E-02  -0.58005689E-03
  7213.2200       0.96324976       0.96259781       0.99426729       0.99361522      -0.74800414E-03  -0.54444880E-02
  7213.8300       0.96018551       0.96267299       0.99134555       0.99383289      -0.29725852E-02  -0.97706707E-03
  7214.4400       0.95962320       0.96274609       0.99092494       0.99404770      -0.19400260E-02  -0.91598641E-03
  7215.0600       0.95779928       0.96281828       0.98924423       0.99426311      -0.40992485E-02  -0.34016265E-02
  7215.6700       0.95458113       0.96288725       0.98616619       0.99447218      -0.61240266E-02   0.27272555E-02
  7216.2900       0.95026673       0.96295527       0.98199338       0.99468181      -0.74472431E-03   0.67029853E-02
  7216.9000       0.95366512       0.96302018       0.98553028       0.99488523       0.21206454E-02   0.10409238E-02
  7217.5200       0.95287512       0.96308412       0.98488026       0.99508914       0.53561193E-03  -0.21384753E-02
  7218.1300       0.95432392       0.96314504       0.98646598       0.99528698      -0.50967923E-03   0.17840222E-02
  7218.7400       0.95225331       0.96320401       0.98453149       0.99548207       0.27121190E-02   0.20552764E-02
  7219.3600       0.95765982       0.96326198       0.99007555       0.99567758       0.20183107E-02  -0.33870470E-02
  7219.9700       0.95473583       0.96331707       0.98728609       0.99586721      -0.14539488E-02  -0.39403770E-02
  7220.5900       0.95587147       0.96337113       0.98855765       0.99605719      -0.28283530E-02  -0.26784762E-02
  7221.2000       0.95125696       0.96342243       0.98407607       0.99624142      -0.47484746E-02   0.12054638E-02
  7221.8200       0.95003084       0.96347266       0.98298426       0.99642595      -0.13456325E-02   0.49031800E-02
  7222.4400       0.94958838       0.96352099       0.98267528       0.99660776       0.13314685E-02   0.15329083E-02
  7223.0500       0.95166855       0.96356670       0.98488598       0.99678401       0.53984473E-03  -0.10571206E-02
  7223.6700       0.95025239       0.96361132       0.98360168       0.99696049       0.31210165E-04   0.13928065E-02
  7224.2800       0.95170694       0.96365341       0.98518517       0.99713152       0.22529968E-02  -0.98842448E-03
  7224.9000       0.95302357       0.96369439       0.98663204       0.99730274      -0.11845520E-02  -0.46318893E-02
  7225.5100       0.95024994       0.96373294       0.98398575       0.99746863      -0.34442271E-02  -0.52266710E-03
  7226.1300       0.94878717       0.96377035       0.98265160       0.99763466      -0.18274325E-02   0.28948899E-02
  7226.7500       0.94798392       0.96380599       0.98197616       0.99779810       0.14543631E-03   0.32399961E-02
  7227.3600       0.94896606       0.96383935       0.98308323       0.99795641       0.21577628E-02  -0.10274288E-02
  7227.9800       0.95063797       0.96387154       0.98488132       0.99811477      -0.11183012E-02  -0.19209891E-02
  7228.6000       0.94757936       0.96390202       0.98194808       0.99827061      -0.22426369E-03   0.14353875E-02
  7229.2100       0.95036213       0.96393036       0.98485338       0.99842149       0.64722543E-03  -0.11364283E-02
  7229.8300       0.94837545       0.96395749       0.98299045       0.99857237      -0.16220705E-02  -0.44447501E-03
  7231.3100       0.94695578       0.96401562       0.98186284       0.99892256      -0.28617209E-03   0.46073078E-03
  7233.5300       0.94731662       0.96408569       0.98265305       0.99942201       0.82633387E-04   0.77446060E-04
  7235.8800       0.94733341       0.96413835       0.98311295       0.99991776       0.67756402E-04   0.11232179E-03
  7238.1000       0.94762626       0.96416868       0.98381359        1.0003559       0.59594398E-03   0.28301333E-03
  7240.4500       0.95005688       0.96418123       0.98666446        1.0007887       0.13611273E-02   0.75603932E-04
  7242.8100       0.95403717       0.96417462       0.99105497        1.0011923       0.95203850E-03  -0.90073386E-04
  7245.1600       0.95454098       0.96414993       0.99195549        1.0015643       0.93688168E-03   0.74078047E-04
  7247.5100       0.95844052       0.96410822       0.99623999        1.0019076       0.13002053E-02  -0.11157788E-03
  7249.8700       0.96066495       0.96405025       0.99883920        1.0022244       0.41134985E-03  -0.24763951E-03
  7252.2300       0.96038209       0.96397719       0.99891928        1.0025143       0.13134683E-03   0.17123462E-03
  7254.7100       0.96130066       0.96388534        1.0002065        1.0027910       0.12401254E-02   0.23341047E-03
  7257.2000       0.96654551       0.96377875        1.0058083        1.0030414       0.12913969E-02  -0.22647056E-03
  7259.6800       0.96771891       0.96365951        1.0073241        1.0032646       0.11456673E-03  -0.21460626E-03
  7262.1700       0.96711491       0.96352789        1.0070507        1.0034636       0.22480377E-03   0.11249122E-05
  7264.6600       0.96883843       0.96338557        1.0090917        1.0036387       0.12016879E-03   0.72602282E-04
  7267.1600       0.96771455       0.96323317        1.0082732        1.0037917       0.58708916E-03   0.95810472E-04
  7269.7800       0.97184433       0.96306456        1.0127089        1.0039290       0.61071841E-03  -0.20641028E-03
  7272.2700       0.97083532       0.96289719        1.0119770        1.0040387      -0.46766740E-03  -0.14359348E-03
  7274.9000       0.96944987       0.96271424        1.0108700        1.0041342      -0.12448020E-03   0.78370222E-04
  7277.5200       0.97018180       0.96252711        1.0118646        1.0042098      -0.56223729E-04  -0.48842784E-04
  7280.1500       0.96915469       0.96233581        1.0110865        1.0042675      -0.38090482E-03   0.30965806E-04
  7282.7800       0.96817824       0.96214250        1.0103444        1.0043085       0.10665641E-03  -0.17902578E-04
  7285.5300       0.96972851       0.96193980        1.0121239        1.0043351      -0.47722069E-03  -0.13132033E-03
  7288.1700       0.96560602       0.96174617        1.0082064        1.0043465      -0.60116019E-03  -0.22315594E-04
  7290.9300       0.96648224       0.96154637        1.0092811        1.0043451      -0.59772489E-03   0.32776446E-05
  7296.4600       0.96065088       0.96116079        1.0037986        1.0043084      -0.57398852E-03   0.10862941E-03
  7299.2200       0.96172388       0.96097907        1.0050214        1.0042764       0.30281293E-03   0.92700657E-04
  7301.9900       0.96232544       0.96080613        1.0057569        1.0042375      -0.61353882E-04  -0.15685206E-03
  7304.8900       0.96137600       0.96063703        1.0049303        1.0041912      -0.58653824E-03  -0.77166059E-04
  7307.6600       0.95899976       0.96048871        1.0026547        1.0041436      -0.49888543E-03   0.11536102E-03
  7310.5700       0.95854233       0.96034867        1.0022854        1.0040916       0.68712357E-04   0.80979507E-04
  7313.4700       0.95939898       0.96022703        1.0032120        1.0040399      -0.28394501E-04  -0.83104182E-04
  7316.3800       0.95837736       0.96012372        1.0022425        1.0039888      -0.41412294E-03   0.39029277E-04
  7319.2900       0.95698879       0.96003905        1.0008881        1.0039383       0.19875589E-03   0.56931195E-04
  7322.2000       0.95953412       0.95997287        1.0034496        1.0038882      -0.82783387E-04  -0.87089954E-04
  7325.2400       0.95649623       0.95992331        1.0004094        1.0038363      -0.31942933E-03   0.68332293E-04
  7328.1600       0.95763032       0.95989438        1.0015227        1.0037866       0.32447708E-03   0.50167636E-04
  7331.2000       0.95843011       0.95988351        1.0022816        1.0037348      -0.20430224E-04  -0.79060774E-04
  7334.2500       0.95750590       0.95989218        1.0012966        1.0036827      -0.15700303E-03   0.61759844E-04
  7337.3000       0.95747239       0.95992027        1.0011825        1.0036302       0.35630482E-03   0.29058367E-04
  7340.3600       0.95968292       0.95996779        1.0032923        1.0035770       0.20543585E-04  -0.76491490E-04
  7343.4100       0.95759791       0.96003424        1.0010871        1.0035233      -0.11105818E-03   0.72122435E-04
  7346.6000       0.95898992       0.96012393        1.0023322        1.0034661       0.47058758E-03   0.62117117E-04
  7349.6600       0.96053909       0.96022918        1.0037201        1.0034101       0.27717380E-03  -0.76127659E-04
  7352.8600       0.96072503       0.96035916        1.0037161        1.0033501      -0.59715623E-05  -0.40839710E-05
  7356.0500       0.96050093       0.96050880        1.0032810        1.0032887       0.25107722E-03   0.49354509E-04
  7359.2500       0.96232941       0.96067883        1.0048760        1.0032253       0.30940375E-03  -0.81436086E-04
  7362.4500       0.96248111       0.96086861        1.0047725        1.0031599      -0.27011373E-03  -0.71276965E-04
  7365.6500       0.96060068       0.96107791        1.0026151        1.0030922      -0.14676883E-03   0.44564889E-04
  7368.9900       0.96152124       0.96131698        1.0032234        1.0030190       0.21340648E-04   0.66548432E-05
  7372.2000       0.96074046       0.96156636        1.0021200        1.0029458      -0.10317960E-03   0.33080920E-04
  7375.5400       0.96084542       0.96184602        1.0018661        1.0028666       0.23802068E-03   0.41236131E-04
  7378.8900       0.96233282       0.96214696        1.0029698        1.0027838       0.17269011E-03  -0.15492458E-04
  7382.2300       0.96200071       0.96246713        1.0022313        1.0026976       0.13437613E-03   0.61909294E-04
  7385.5800       0.96323180       0.96280822        1.0030309        1.0026072       0.58686329E-03   0.37907670E-04
  7388.9400       0.96593857       0.96317017        1.0052810        1.0025125       0.38873659E-03  -0.10091542E-03
  7392.3000       0.96584411       0.96355174        1.0047058        1.0024133      -0.91288316E-04  -0.80383186E-04
  7395.7900       0.96531324       0.96396859        1.0036502        1.0023054      -0.16188823E-03   0.24601802E-04
  7399.1500       0.96473517       0.96438942        1.0025425        1.0021966       0.77234027E-04   0.46675097E-04
  7402.6500       0.96584307       0.96484787        1.0030731        1.0020778       0.15830294E-03  -0.75092525E-05
  7406.1500       0.96584329       0.96532653        1.0024700        1.0019531       0.24669259E-04   0.12506386E-04
  7409.6500       0.96601575       0.96582514        1.0020131        1.0018224       0.24584764E-03   0.10107815E-04
  7413.1600       0.96756669       0.96634493        1.0029067        1.0016848       0.95525041E-04  -0.20214066E-04
  7416.8000       0.96669876       0.96690458        1.0013294        1.0015351       0.10131707E-03   0.18946600E-05
  7420.3100       0.96829110       0.96746382        1.0022110        1.0013836       0.10907186E-03  -0.25253751E-04
  7423.9600       0.96747971       0.96806546        1.0006327        1.0012184      -0.79499790E-04   0.29970131E-04
  7427.4800       0.96772109       0.96866479        1.0001077        1.0010513       0.32395770E-03   0.61208421E-04
  7431.1300       0.96980249       0.96930577        1.0013666        1.0008698       0.35936459E-03  -0.53378152E-04
  7434.7900       0.97034804       0.96996815        1.0010589        1.0006789      -0.66236596E-04  -0.29097771E-04
  7438.4500       0.96931763       0.97064990       0.99914680        1.0004789       0.14636890E-03   0.37576647E-04
  7442.1200       0.97142093       0.97135263        1.0003374        1.0002689       0.20920023E-03   0.39711494E-05
  7445.9200       0.97088036       0.97210010       0.99882152        1.0000411       0.17603339E-03   0.65707298E-05
  7449.5900       0.97273590       0.97284084       0.99970601       0.99981083       0.25828358E-03   0.11425559E-05
  7453.4000       0.97281232       0.97362909       0.99874403       0.99956067       0.18457970E-03   0.35616920E-05
  7457.0900       0.97412025       0.97441086       0.99901683       0.99930732       0.28499627E-03   0.23861046E-05
  7460.9000       0.97494979       0.97523667       0.99874720       0.99903395       0.20247549E-03  -0.42835917E-04
  7464.7200       0.97566513       0.97608335       0.99832948       0.99874757      -0.41841781E-04  -0.19699475E-04
  7468.5500       0.97462970       0.97695102       0.99612686       0.99844805       0.51774502E-04   0.54717766E-04
  7472.3800       0.97606173       0.97783753       0.99636050       0.99813618       0.37729631E-03   0.23405735E-04
  7476.3400       0.97756884       0.97877400       0.99659575       0.99780078       0.23410518E-03  -0.38747087E-04
  7480.1800       0.97788775       0.97970144       0.99564947       0.99746304       0.75069027E-04   0.20058081E-04
  7484.1500       0.97815513       0.98068034       0.99457588       0.99710096       0.39075879E-03   0.57138142E-04
  7488.1300       0.98099428       0.98168225       0.99603701       0.99672486       0.52931725E-03  -0.95822839E-05
  7491.9800       0.98229969       0.98267105       0.99597736       0.99634860       0.31572950E-03  -0.26872180E-04
  7495.9700       0.98346960       0.98371621       0.99569931       0.99594579       0.31863936E-03  -0.30406316E-05
  7504.0900       0.98615841       0.98590757       0.99533681       0.99508585       0.27890746E-03   0.36911406E-05
  7508.0900       0.98684996       0.98701891       0.99447370       0.99464252       0.36337598E-03   0.13285108E-04
  7512.1000       0.98906905       0.98815420       0.99510008       0.99418510       0.38532117E-03  -0.79999200E-05
  7516.2400       0.98999032       0.98934859       0.99434113       0.99369926       0.29817663E-03  -0.28399249E-05
  7520.3900       0.99154093       0.99056866       0.99417087       0.99319847       0.36177819E-03   0.70039123E-06
  7524.5400       0.99299308       0.99181162       0.99386551       0.99268392       0.30398988E-03   0.43207576E-05
  7528.5600       0.99402453       0.99303752       0.99315959       0.99217245       0.39707878E-03   0.98921036E-05
  7532.7200       0.99624119       0.99432885       0.99354217       0.99162970       0.38490729E-03  -0.72851532E-05
  7537.0200       0.99728085       0.99568799       0.99264735       0.99105436       0.33544639E-03  -0.16107121E-06
  7541.2000       0.99908577       0.99703300       0.99253409       0.99048118       0.38354140E-03  -0.68181250E-05
  7545.3700        1.0004834       0.99839823       0.99198110       0.98989578       0.27851504E-03  -0.54449249E-05
  7549.6900        1.0014504       0.99983733       0.99088825       0.98927508       0.33731399E-03  -0.23658376E-05
  7553.8700        1.0033506        1.0012538       0.99075763       0.98866075       0.25840542E-03  -0.35001242E-05
  7566.8700        1.0058898        1.0058111       0.98674331       0.98666449       0.27718186E-03   0.10381792E-05
  7571.2100        1.0081569        1.0073839       0.98674257       0.98596940       0.27640745E-03  -0.69191933E-05
  7575.5600        1.0082918        1.0089862       0.98456408       0.98525844       0.21705407E-03   0.23412397E-04
  7580.0400        1.0100735        1.0106637       0.98392131       0.98451137       0.48313892E-03   0.25682839E-04
  7584.4000        1.0125627        1.0123228       0.98400993       0.98376991       0.44409036E-03  -0.20135322E-05
  7588.9000        1.0140081        1.0140628       0.98293533       0.98298981       0.46529902E-03   0.64979528E-06
  7593.2700        1.0166899        1.0157793       0.98312861       0.98221790       0.44985405E-03  -0.31265145E-04
  7597.7800        1.0180029        1.0175787       0.98183077       0.98140652       0.18766454E-03  -0.22597878E-04
  7602.2900        1.0183826        1.0194065       0.97955651       0.98058024       0.24602119E-03   0.26971113E-04
  7606.8200        1.0202269        1.0212710       0.97869139       0.97973537       0.43148340E-03   0.26690841E-04
  7611.3400        1.0222876        1.0231601       0.97800518       0.97887755       0.48757330E-03   0.99521565E-05
  7615.8700        1.0246394        1.0250821       0.97756048       0.97800304       0.52155042E-03  -0.14040913E-04
  7620.5500        1.0270910        1.0270982       0.97707709       0.97708412       0.35825649E-03  -0.22174411E-04
  7625.0900        1.0279425        1.0290836       0.97503688       0.97617777       0.31710235E-03   0.18428566E-04
  7629.7800        1.0300179        1.0311652       0.97407893       0.97522611       0.52835215E-03   0.19460775E-04
  7634.3300        1.0328245        1.0332146       0.97389810       0.97428803       0.49691991E-03  -0.21069007E-04
  7639.0300        1.0346144        1.0353625       0.97255580       0.97330378       0.33346383E-03   0.29701292E-05
  7643.7400        1.0359624        1.0375467       0.97071783       0.97230198       0.52486883E-03   0.28625401E-04
  7648.4500        1.0395587        1.0397627       0.97108092       0.97128479       0.60311512E-03  -0.85208670E-05
  7653.1700        1.0416498        1.0420153       0.96988467       0.97025009       0.44451705E-03  -0.13745860E-04
  7657.8900        1.0437549        1.0443002       0.96865504       0.96920020       0.47335420E-03   0.36945535E-05
  7662.6200        1.0461230        1.0466226       0.96763377       0.96813323       0.47943058E-03  -0.84684900E-07
  7667.4900        1.0483574        1.0490483       0.96632884       0.96701960       0.47254122E-03  -0.33449437E-05
  7672.2300        1.0506641        1.0514436       0.96514216       0.96592147       0.44728567E-03   0.56052139E-05
  7677.1200        1.0526648        1.0539504       0.96348888       0.96477433       0.52651943E-03   0.16617574E-04
  7681.8700        1.0557398        1.0564208       0.96296577       0.96364664       0.60747908E-03  -0.52077422E-05
  7686.7700        1.0585270        1.0590061       0.96199102       0.96246997       0.47626472E-03  -0.30718476E-05
  7691.6800        1.0604119        1.0616347       0.96005509       0.96127777       0.57734426E-03   0.23779603E-04
  7696.5900        1.0641965        1.0643020       0.95996752       0.96007291       0.70978042E-03  -0.21161479E-05
  7701.5100        1.0673891        1.0670140       0.95922861       0.95885340       0.55654253E-03  -0.21449470E-04
  7706.4400        1.0696784        1.0697713       0.95752690       0.95761965       0.49850314E-03  -0.18033238E-05
  7711.5100        1.0723741        1.0726491       0.95606419       0.95633910       0.53850929E-03   0.15161639E-04
  7716.4500        1.0750689        1.0754948       0.95465471       0.95508044       0.65027114E-03   0.15134691E-04
  7721.5400        1.0788963        1.0784704       0.95419886       0.95377277       0.69031023E-03  -0.95935847E-07
  7726.4900        1.0819996        1.0814070       0.95308391       0.95249109       0.64930795E-03  -0.10430621E-04
  7731.5900        1.0854219        1.0844773       0.95210551       0.95116081       0.58548249E-03  -0.99954120E-05
  7736.7000        1.0879774        1.0875997       0.95019635       0.94981853       0.54725479E-03   0.15151876E-05
  7741.6700        1.0909382        1.0906814       0.94876144       0.94850454       0.60075559E-03   0.10280152E-04
  7746.7900        1.0940390        1.0939028       0.94727900       0.94714266       0.65098152E-03   0.39768783E-05
  7752.0600        1.0977019        1.0972687       0.94616605       0.94573276       0.64207535E-03  -0.11487083E-05
  7757.2000        1.1007230        1.1006011       0.94447233       0.94435027       0.63902347E-03   0.68813463E-05
  7762.3400        1.1042710        1.1039830       0.94324925       0.94296106       0.71281559E-03   0.10575833E-04
  7767.4900        1.1080579        1.1074216       0.94219940       0.94156298       0.74784879E-03   0.49431779E-05
  7772.7900        1.1120861        1.1110135       0.94119105       0.94011832       0.76447180E-03  -0.52056921E-05
  7777.9500        1.1160543        1.1145627       0.94019843       0.93870669       0.69339725E-03  -0.73461805E-05
  7783.2700        1.1193529        1.1182766       0.93832303       0.93724661       0.68748383E-03   0.72652015E-05
  7788.5900        1.1233691        1.1220465       0.93710512       0.93578239       0.77069899E-03   0.18779482E-05
  7793.7800        1.1274529        1.1257790       0.93602464       0.93435054       0.70722106E-03  -0.13489746E-04
  7799.1100        1.1308091        1.1296688       0.93401760       0.93287719       0.62878687E-03  -0.83893324E-05
  7804.4600        1.1341684        1.1336317       0.93193277       0.93139600       0.61762299E-03   0.67062268E-05
  7809.9600        1.1375103        1.1377675       0.92961451       0.92987154       0.70154943E-03   0.17796790E-04
  7815.3200        1.1417872        1.1418588       0.92831337       0.92838482       0.81089613E-03   0.89194795E-05
  7820.6800        1.1462031        1.1460108       0.92709016       0.92689770       0.79716625E-03  -0.84361155E-05
  7826.0600        1.1503487        1.1502400       0.92551418       0.92540527       0.72029226E-03  -0.39223485E-05
  7831.5900        1.1540615        1.1546522       0.92328162       0.92387215       0.75437343E-03   0.85854499E-05
  7836.9800        1.1585865        1.1590168       0.92194924       0.92237941       0.81404537E-03   0.13851150E-04
  7842.5200        1.1629590        1.1635696       0.92023695       0.92084742       0.90576650E-03   0.11675663E-04
  7848.0800        1.1686405        1.1682075       0.91974607       0.91931294       0.94364522E-03  -0.68775683E-05
  7853.4900        1.1733108        1.1727870       0.91834737       0.91782346       0.83031957E-03  -0.10664986E-04
  7859.0600        1.1777574        1.1775714       0.91648049       0.91629433       0.82654368E-03   0.28097471E-05
  7864.6400        1.1825268        1.1824357       0.91485881       0.91476764       0.86164825E-03   0.13961071E-05
  7870.2200        1.1873734        1.1873722       0.91324823       0.91324687       0.84212424E-03  -0.13554033E-05
  7881.5600        1.1967755        1.1976296       0.90932349       0.91017746       0.83871483E-03   0.49798799E-05
  7887.1800        1.2015980        1.2028265       0.90744000       0.90866829       0.92658300E-03   0.63980634E-05
  7892.7900        1.2071810        1.2080900       0.90626192       0.90717073       0.91056508E-03  -0.52401370E-05
  7898.5700        1.2119694        1.2135931       0.90401428       0.90563787       0.86689784E-03   0.62035399E-05
  7904.2000        1.2170723        1.2190323       0.90219555       0.90415539       0.98134747E-03   0.16378903E-04
  7910.0000        1.2231862        1.2247180       0.90110818       0.90263987       0.10541087E-02   0.12545039E-04
