# XDI/1.0 Athena/0.9.26
# Element.edge:                  K
# Element.symbol:                Fe
# Column.1:                      energy eV
# Column.2:                      norm
# Column.3:                      nbkg
# Column.4:                      flat
# Column.5:                      fbkg
# Column.6:                      nder
# Column.7:                      nsec
# Athena.e0:                     7120.140
# Athena.eshift:                 -0.675
# Athena.rbkg:                   1
# Athena.importance:             1
# Athena.standard:               None
# Athena.bkg_kweight:            2
# Athena.edge_step:              0.3486666
# Athena.fixed_step:             no
# Athena.pre_edge_range:         -215 -20
# Athena.pre_edge_line:          9.411480 - 0.0010151 * E
# Athena.normalization_range:    63.870 382.040
# Athena.post_edge_polynomial:   35.183127 - 0.00792972 * E + 4.69660366e-007 * E^2 + 0 * E^3
# Athena.spline_range_energy:    0.000 791.795
# Athena.clamps:                 0 24
# Athena.spline_range_k:         0.000 14.416
# Athena.kweight:                2
# Athena.window:                 hanning
# Athena.phase_correction:       no
# Athena.k_range:                3 9
# Athena.dk:                     1
# Athena.r_range:                1 3
# Athena.dr:                     0.0
# Athena.window:                 hanning
# Athena.plot_multiplier:        1
# Athena.y_offset:               0
# ///
#------------------------
#   e         norm       nbkg       flat       fbkg       nder       nsec
  6862.0900       0.27004101E-02   0.27004103E-02   0.27004103E-02   0.27004103E-02   0.30759486E-02  -0.22255587E-03
  6872.0600       0.33367618E-01   0.33367620E-01   0.33367620E-01   0.33367620E-01   0.85706658E-03  -0.19269399E-03
  6882.0500       0.19807459E-01   0.19807460E-01   0.19807460E-01   0.19807460E-01  -0.77022330E-03  -0.70752795E-04
  6892.0800       0.17947748E-01   0.17947749E-01   0.17947749E-01   0.17947749E-01  -0.55940438E-03   0.14099395E-04
  6902.1400       0.85690251E-02   0.85690256E-02   0.85690257E-02   0.85690256E-02  -0.48696645E-03   0.22482174E-04
  6912.1200       0.81889399E-02   0.81889404E-02   0.81889405E-02   0.81889404E-02  -0.10886161E-03   0.11157522E-04
  6922.1200       0.63939700E-02   0.63939704E-02   0.63939705E-02   0.63939704E-02  -0.26403917E-03  -0.60798745E-05
  6932.0500       0.29266393E-02   0.29266394E-02   0.29266395E-02   0.29266394E-02  -0.23003351E-03   0.12417866E-04
  6942.1100       0.17956002E-02   0.17956002E-02   0.17956003E-02   0.17956002E-02  -0.15806028E-04   0.50729470E-05
  6952.1000       0.26097284E-02   0.26097285E-02   0.26097286E-02   0.26097285E-02  -0.12832092E-03  -0.74119204E-05
  6962.1100      -0.77081832E-03  -0.77081843E-03  -0.77081837E-03  -0.77081843E-03  -0.16404444E-03   0.58928368E-05
  6972.1600      -0.68100296E-03  -0.68100307E-03  -0.68100301E-03  -0.68100307E-03  -0.10110618E-04   0.35263865E-05
  6982.1200      -0.97313178E-03  -0.97313191E-03  -0.97313185E-03  -0.97313191E-03  -0.93481442E-04  -0.72716789E-05
  6992.1000      -0.25450229E-02  -0.25450232E-02  -0.25450231E-02  -0.25450232E-02  -0.15510789E-03   0.84211581E-06
  7002.1200      -0.40752897E-02  -0.40752900E-02  -0.40752900E-02  -0.40752900E-02  -0.76639126E-04   0.10958243E-04
  7012.0600      -0.40747399E-02  -0.40747402E-02  -0.40747402E-02  -0.40747402E-02   0.63618642E-04   0.20222456E-05
  7022.1400      -0.28016445E-02  -0.28016447E-02  -0.28016447E-02  -0.28016447E-02  -0.36153769E-04  -0.26892408E-05
  7032.1300      -0.48003460E-02  -0.48003464E-02  -0.48003463E-02  -0.48003464E-02   0.96455785E-05   0.50580876E-05
  7042.1500      -0.26086364E-02  -0.26086367E-02  -0.26086366E-02  -0.26086367E-02   0.65058563E-04  -0.64896544E-05
  7052.0900      -0.35017771E-02  -0.35017774E-02  -0.35017773E-02  -0.35017774E-02  -0.11988792E-03   0.51832285E-05
  7062.0500      -0.49944061E-02  -0.49944065E-02  -0.49944065E-02  -0.49944065E-02   0.16820481E-03   0.12481692E-03
  7063.1100      -0.16481601E-02  -0.16481602E-02  -0.16481602E-02  -0.16481602E-02   0.12555946E-02  -0.44121913E-02
  7063.3500      -0.33621332E-02  -0.33621335E-02  -0.33621334E-02  -0.33621335E-02  -0.55676439E-02   0.53499247E-02
  7063.5800      -0.42649527E-02  -0.42649531E-02  -0.42649530E-02  -0.42649531E-02   0.37700592E-02   0.22362503E-01
  7063.8100      -0.16279059E-02  -0.16279061E-02  -0.16279060E-02  -0.16279061E-02   0.47191076E-02  -0.11132126E-01
  7064.0500      -0.20469721E-02  -0.20469723E-02  -0.20469723E-02  -0.20469723E-02  -0.14620398E-02  -0.74384647E-02
  7064.2800      -0.23150646E-02  -0.23150648E-02  -0.23150648E-02  -0.23150648E-02   0.12230292E-02  -0.29449753E-02
  7064.5200      -0.14721484E-02  -0.14721486E-02  -0.14721485E-02  -0.14721486E-02  -0.28461782E-02  -0.12542236E-01
  7064.7500      -0.36527684E-02  -0.36527687E-02  -0.36527686E-02  -0.36527687E-02  -0.46718215E-02   0.78881218E-02
  7064.9900      -0.36679045E-02  -0.36679048E-02  -0.36679048E-02  -0.36679048E-02   0.86123904E-03   0.97985791E-02
  7065.2200      -0.32479860E-02  -0.32479863E-02  -0.32479862E-02  -0.32479863E-02  -0.66489342E-04   0.69032945E-03
  7065.4600      -0.36991545E-02  -0.36991548E-02  -0.36991548E-02  -0.36991548E-02   0.11856939E-02   0.74160135E-03
  7065.6900      -0.26907099E-02  -0.26907101E-02  -0.26907101E-02  -0.26907101E-02   0.28206329E-03  -0.96968188E-02
  7065.9300      -0.35665848E-02  -0.35665851E-02  -0.35665850E-02  -0.35665851E-02  -0.33718109E-02   0.24986016E-03
  7066.1700      -0.43091791E-02  -0.43091795E-02  -0.43091794E-02  -0.43091795E-02   0.40199617E-03   0.81827083E-02
  7066.4000      -0.33776466E-02  -0.33776469E-02  -0.33776468E-02  -0.33776469E-02   0.47406199E-03   0.18795859E-02
  7066.6400      -0.40863700E-02  -0.40863704E-02  -0.40863703E-02  -0.40863704E-02   0.12854016E-02   0.17948158E-01
  7066.8700      -0.27735078E-02  -0.27735081E-02  -0.27735080E-02  -0.27735081E-02   0.89096962E-02   0.19753055E-01
  7067.1100       0.10118720E-03   0.10118714E-03   0.10118721E-03   0.10118714E-03   0.10569337E-01  -0.14986490E-01
  7067.3400       0.21940808E-02   0.21940809E-02   0.21940809E-02   0.21940809E-02   0.18660458E-02  -0.30439963E-01
  7067.5800       0.97822873E-03   0.97822874E-03   0.97822880E-03   0.97822874E-03  -0.37374451E-02  -0.10525245E-01
  7067.8100       0.43748157E-03   0.43748154E-03   0.43748160E-03   0.43748154E-03  -0.30808192E-02  -0.38709686E-02
  7068.0500      -0.46975629E-03  -0.46975638E-03  -0.46975632E-03  -0.46975638E-03  -0.55568004E-02  -0.94533130E-03
  7068.2800      -0.21742146E-02  -0.21742148E-02  -0.21742148E-02  -0.21742148E-02  -0.35251249E-02   0.69922276E-02
  7068.5200      -0.21265650E-02  -0.21265652E-02  -0.21265651E-02  -0.21265652E-02  -0.22704534E-02   0.50043177E-02
  7068.7500      -0.32413277E-02  -0.32413280E-02  -0.32413279E-02  -0.32413280E-02  -0.11730956E-02   0.74447084E-02
  7068.9900      -0.26779199E-02  -0.26779202E-02  -0.26779201E-02  -0.26779202E-02   0.12285596E-02  -0.53236504E-03
  7069.2200      -0.26639047E-02  -0.26639050E-02  -0.26639049E-02  -0.26639050E-02  -0.14233072E-02  -0.19574318E-02
  7069.4600      -0.33468743E-02  -0.33468746E-02  -0.33468745E-02  -0.33468746E-02   0.30856663E-03   0.11267573E-01
  7069.6900      -0.25188784E-02  -0.25188786E-02  -0.25188786E-02  -0.25188786E-02   0.38724520E-02   0.60156927E-02
  7069.9300      -0.15268218E-02  -0.15268220E-02  -0.15268219E-02  -0.15268220E-02   0.31359422E-02  -0.16342122E-01
  7070.1600      -0.10449856E-02  -0.10449857E-02  -0.10449856E-02  -0.10449857E-02  -0.38083454E-02  -0.16329844E-01
  7070.4000      -0.33167442E-02  -0.33167445E-02  -0.33167444E-02  -0.33167445E-02  -0.45390843E-02   0.13243867E-01
  7070.6300      -0.31783552E-02  -0.31783555E-02  -0.31783554E-02  -0.31783555E-02   0.24162721E-02   0.10086063E-01
  7070.8700      -0.21810963E-02  -0.21810965E-02  -0.21810964E-02  -0.21810965E-02   0.20136552E-03  -0.39832037E-02
  7071.1100      -0.30816997E-02  -0.30817000E-02  -0.30817000E-02  -0.30817000E-02   0.50433439E-03   0.55837213E-02
  7071.3400      -0.19440591E-02  -0.19440593E-02  -0.19440592E-02  -0.19440593E-02   0.28257145E-02   0.19634411E-02
  7071.5800      -0.17536139E-02  -0.17536141E-02  -0.17536140E-02  -0.17536141E-02   0.14271517E-02  -0.48839710E-02
  7071.8100      -0.12732978E-02  -0.12732979E-02  -0.12732979E-02  -0.12732979E-02   0.53024814E-03  -0.19896872E-02
  7072.0500      -0.15043973E-02  -0.15043975E-02  -0.15043974E-02  -0.15043975E-02   0.49199874E-03  -0.85667184E-02
  7072.2800      -0.10420584E-02  -0.10420585E-02  -0.10420584E-02  -0.10420585E-02  -0.34961095E-02  -0.47147990E-02
  7072.5200      -0.31475688E-02  -0.31475691E-02  -0.31475690E-02  -0.31475691E-02  -0.17239568E-02   0.12821303E-01
  7072.7500      -0.18523181E-02  -0.18523183E-02  -0.18523182E-02  -0.18523183E-02   0.25299030E-02   0.62336697E-02
  7072.9900      -0.19585144E-02  -0.19585146E-02  -0.19585145E-02  -0.19585146E-02   0.12058680E-02  -0.30032361E-02
  7073.2300      -0.12735014E-02  -0.12735016E-02  -0.12735015E-02  -0.12735016E-02   0.10883496E-02  -0.14496838E-02
  7073.4600      -0.14469900E-02  -0.14469902E-02  -0.14469901E-02  -0.14469902E-02   0.52451658E-03  -0.38018252E-02
  7073.7000      -0.10269786E-02  -0.10269788E-02  -0.10269787E-02  -0.10269788E-02  -0.69850821E-03   0.22248712E-02
  7073.9300      -0.17752889E-02  -0.17752891E-02  -0.17752890E-02  -0.17752891E-02   0.15702060E-02   0.72904768E-02
  7074.1700      -0.28898180E-03  -0.28898188E-03  -0.28898182E-03  -0.28898188E-03   0.27280159E-02  -0.27850752E-02
  7074.4000      -0.49312143E-03  -0.49312153E-03  -0.49312147E-03  -0.49312153E-03   0.26122072E-03  -0.25511741E-02
  7074.6400      -0.16620806E-03  -0.16620813E-03  -0.16620807E-03  -0.16620813E-03   0.15289641E-02  -0.18689517E-02
  7074.8700       0.22549168E-03   0.22549163E-03   0.22549170E-03   0.22549163E-03  -0.61718659E-03  -0.92227319E-02
  7075.1100      -0.45628575E-03  -0.45628585E-03  -0.45628579E-03  -0.45628585E-03  -0.28057199E-02  -0.33275242E-03
  7075.3500      -0.11212539E-02  -0.11212540E-02  -0.11212540E-02  -0.11212540E-02  -0.77690775E-03   0.56844943E-02
  7075.5800      -0.82143240E-03  -0.82143251E-03  -0.82143245E-03  -0.82143251E-03  -0.13400763E-03  -0.55002576E-02
  7075.8200      -0.11842375E-02  -0.11842376E-02  -0.11842376E-02  -0.11842376E-02  -0.33620288E-02  -0.21663883E-03
  7076.0500      -0.24015859E-02  -0.24015862E-02  -0.24015861E-02  -0.24015862E-02  -0.23582788E-03   0.12681459E-01
  7076.2900      -0.12950766E-02  -0.12950767E-02  -0.12950767E-02  -0.12950767E-02   0.25982571E-02   0.37975008E-02
  7076.5300      -0.11544225E-02  -0.11544227E-02  -0.11544226E-02  -0.11544227E-02   0.15869725E-02   0.96874114E-03
  7076.7600      -0.54919950E-03  -0.54919960E-03  -0.54919954E-03  -0.54919960E-03   0.30535654E-02   0.39803114E-02
  7077.0000       0.28075320E-03   0.28075316E-03   0.28075322E-03   0.28075316E-03   0.34577189E-02  -0.83651261E-02
  7077.2300       0.10759284E-02   0.10759284E-02   0.10759284E-02   0.10759284E-02  -0.87804387E-03  -0.20295622E-01
  7077.4700      -0.13192742E-03  -0.13192749E-03  -0.13192743E-03  -0.13192749E-03  -0.60812237E-02  -0.17318661E-02
  7077.7000      -0.17822468E-02  -0.17822469E-02  -0.17822469E-02  -0.17822469E-02  -0.16920209E-02   0.14477750E-01
  7077.9400      -0.92717726E-03  -0.92717738E-03  -0.92717732E-03  -0.92717738E-03   0.72331897E-03   0.71130322E-02
  7078.1800      -0.14350536E-02  -0.14350538E-02  -0.14350537E-02  -0.14350538E-02   0.17222345E-02  -0.67940071E-03
  7078.4100      -0.11772702E-03  -0.11772709E-03  -0.11772703E-03  -0.11772709E-03   0.40400064E-03  -0.49074301E-04
  7078.6500      -0.12451733E-02  -0.12451735E-02  -0.12451734E-02  -0.12451735E-02   0.16991696E-02   0.83754867E-02
  7078.8800       0.68088270E-03   0.68088269E-03   0.68088275E-03   0.68088269E-03   0.43404794E-02  -0.84957940E-02
  7079.1200       0.79485196E-03   0.79485195E-03   0.79485201E-03   0.79485195E-03  -0.22938535E-02  -0.94706354E-02
  7079.3600      -0.42016700E-03  -0.42016709E-03  -0.42016703E-03  -0.42016709E-03  -0.20542562E-03   0.79457084E-02
  7079.5900       0.69830192E-03   0.69830191E-03   0.69830197E-03   0.69830191E-03   0.14406294E-02  -0.20063308E-02
  7079.8300       0.25692883E-03   0.25692878E-03   0.25692884E-03   0.25692878E-03  -0.11484011E-02  -0.72166148E-02
  7080.0600       0.15855339E-03   0.15855334E-03   0.15855340E-03   0.15855334E-03  -0.19511796E-02  -0.10034804E-01
  7080.3000      -0.66012557E-03  -0.66012568E-03  -0.66012562E-03  -0.66012568E-03  -0.58647591E-02  -0.29591909E-03
  7080.5400      -0.26565310E-02  -0.26565312E-02  -0.26565312E-02  -0.26565312E-02  -0.20932207E-02   0.23872527E-01
  7080.7700      -0.16439393E-02  -0.16439395E-02  -0.16439394E-02  -0.16439395E-02   0.53553287E-02   0.12053850E-01
  7081.0100      -0.13952648E-03  -0.13952655E-03  -0.13952649E-03  -0.13952655E-03   0.35720889E-02  -0.79790665E-02
  7081.2400       0.34942493E-04   0.34942435E-04   0.34942495E-04   0.34942435E-04   0.16051675E-02  -0.81533015E-02
  7081.4800       0.61490223E-03   0.61490222E-03   0.61490228E-03   0.61490222E-03  -0.25996275E-03  -0.42738653E-02
  7081.7200      -0.89839625E-04  -0.89839692E-04  -0.89839632E-04  -0.89839692E-04  -0.44628787E-03   0.47611148E-02
  7081.9500       0.40514693E-03   0.40514690E-03   0.40514696E-03   0.40514690E-03   0.19777612E-02   0.39276266E-03
  7082.1900       0.83970813E-03   0.83970813E-03   0.83970819E-03   0.83970813E-03  -0.26168942E-03  -0.13491697E-01
  7082.4300       0.27953601E-03   0.27953597E-03   0.27953603E-03   0.27953597E-03  -0.44982536E-02  -0.47281506E-02
  7082.6600      -0.12744710E-02  -0.12744712E-02  -0.12744711E-02  -0.12744712E-02  -0.24839202E-02   0.12030275E-01
  7082.9000      -0.88790648E-03  -0.88790660E-03  -0.88790654E-03  -0.88790660E-03   0.11559756E-02   0.56486761E-02
  7083.1300      -0.73116250E-03  -0.73116261E-03  -0.73116255E-03  -0.73116261E-03   0.17095758E-03  -0.88149493E-02
  7083.3700      -0.80755642E-03  -0.80755654E-03  -0.80755648E-03  -0.80755654E-03  -0.29870505E-02  -0.37667055E-03
  7083.6100      -0.21649468E-02  -0.21649470E-02  -0.21649469E-02  -0.21649470E-02  -0.98442863E-05   0.13310980E-01
  7083.8400      -0.81218323E-03  -0.81218335E-03  -0.81218329E-03  -0.81218335E-03   0.32691100E-02   0.41128438E-02
  7084.0800      -0.62846505E-03  -0.62846516E-03  -0.62846510E-03  -0.62846516E-03   0.19231923E-02  -0.40348616E-02
  7084.3200       0.11094906E-03   0.11094901E-03   0.11094907E-03   0.11094901E-03   0.13323765E-02  -0.80332000E-02
  7084.5500      -0.22481130E-05  -0.22481736E-05  -0.22481132E-05  -0.22481736E-05  -0.18524117E-02  -0.34100299E-02
  7084.7900      -0.75968446E-03  -0.75968457E-03  -0.75968451E-03  -0.75968457E-03  -0.27033756E-03   0.85816708E-02
  7085.0300      -0.13201014E-03  -0.13201021E-03  -0.13201015E-03  -0.13201021E-03   0.22667902E-02   0.62309080E-05
  7085.2600       0.30570695E-03   0.30570691E-03   0.30570697E-03   0.30570691E-03  -0.26740903E-03  -0.78704006E-02
  7085.5000      -0.25769239E-03  -0.25769247E-03  -0.25769241E-03  -0.25769247E-03  -0.14322980E-02   0.11402333E-01
  7085.7300      -0.36747313E-03  -0.36747321E-03  -0.36747315E-03  -0.36747321E-03   0.50916873E-02   0.68427363E-02
  7085.9700       0.21354006E-02   0.21354007E-02   0.21354008E-02   0.21354007E-02   0.17837880E-02  -0.20729270E-01
  7086.2100       0.48874514E-03   0.48874511E-03   0.48874517E-03   0.48874511E-03  -0.48583624E-02  -0.72656488E-02
  7086.4400      -0.14802968E-03  -0.14802975E-03  -0.14802969E-03  -0.14802975E-03  -0.16310669E-02   0.12808012E-01
  7086.6800      -0.27785631E-03  -0.27785639E-03  -0.27785633E-03  -0.27785639E-03   0.11614033E-02   0.86791770E-02
  7086.9200       0.40944392E-03   0.40944389E-03   0.40944395E-03   0.40944389E-03   0.25349380E-02  -0.63582455E-03
  7087.1500       0.91356457E-03   0.91356457E-03   0.91356464E-03   0.91356457E-03   0.86256579E-03  -0.39815385E-02
  7087.3900       0.81484984E-03   0.81484983E-03   0.81484989E-03   0.81484983E-03   0.66361493E-03  -0.18701465E-02
  7087.6300       0.12320997E-02   0.12320998E-02   0.12320998E-02   0.12320998E-02  -0.35104548E-04  -0.58798810E-02
  7087.8600       0.79835070E-03   0.79835070E-03   0.79835076E-03   0.79835070E-03  -0.20999291E-02  -0.48091047E-02
  7088.1000       0.24513305E-03   0.24513301E-03   0.24513307E-03   0.24513301E-03  -0.22953837E-02   0.40366299E-02
  7088.3400      -0.30343349E-03  -0.30343357E-03  -0.30343351E-03  -0.30343357E-03  -0.16234677E-03   0.65072944E-02
  7088.5700       0.16883007E-03   0.16883002E-03   0.16883008E-03   0.16883002E-03   0.76304464E-03   0.50061239E-02
  7088.8100       0.55197491E-04   0.55197434E-04   0.55197495E-04   0.55197434E-04   0.21905314E-02   0.30553239E-02
  7089.0500       0.12202852E-02   0.12202852E-02   0.12202852E-02   0.12202852E-02   0.22296001E-02  -0.49951556E-02
  7089.2800       0.11031095E-02   0.11031096E-02   0.11031096E-02   0.11031096E-02  -0.15719171E-03  -0.55679649E-02
  7089.5200       0.11464051E-02   0.11464051E-02   0.11464051E-02   0.11464051E-02  -0.38734342E-03   0.50018348E-03
  7089.7600       0.91718470E-03   0.91718470E-03   0.91718476E-03   0.91718470E-03   0.82896362E-04   0.75578530E-02
  7089.9900       0.11853664E-02   0.11853664E-02   0.11853664E-02   0.11853664E-02   0.31648475E-02   0.15586227E-02
  7090.2300       0.24046630E-02   0.24046631E-02   0.24046632E-02   0.24046631E-02   0.81544905E-03  -0.13109395E-01
  7090.4700       0.15767819E-02   0.15767819E-02   0.15767820E-02   0.15767819E-02  -0.31276621E-02  -0.56522462E-02
  7090.7000       0.93466181E-03   0.93466182E-03   0.93466188E-03   0.93466182E-03  -0.18411067E-02   0.87495034E-02
  7090.9400       0.71146177E-03   0.71146175E-03   0.71146181E-03   0.71146175E-03   0.98460447E-03   0.87047233E-02
  7091.1800       0.14072720E-02   0.14072720E-02   0.14072721E-02   0.14072720E-02   0.23371605E-02   0.12843532E-02
  7091.4100       0.18099272E-02   0.18099273E-02   0.18099273E-02   0.18099273E-02   0.15882505E-02  -0.67126118E-02
  7091.6500       0.21537497E-02   0.21537498E-02   0.21537498E-02   0.21537498E-02  -0.81776704E-03  -0.36106728E-02
  7091.8900       0.14173990E-02   0.14173991E-02   0.14173991E-02   0.14173991E-02  -0.14487247E-03   0.49472986E-02
  7092.1200       0.20856596E-02   0.20856597E-02   0.20856598E-02   0.20856597E-02   0.15074633E-02   0.20442706E-02
  7092.3600       0.21259068E-02   0.21259069E-02   0.21259069E-02   0.21259069E-02   0.81593470E-03  -0.21332569E-02
  7092.6000       0.24773083E-02   0.24773084E-02   0.24773084E-02   0.24773084E-02   0.48349999E-03  -0.82261921E-02
  7092.8400       0.23579868E-02   0.23579869E-02   0.23579869E-02   0.23579869E-02  -0.31326375E-02  -0.74539296E-02
  7093.0700       0.10049687E-02   0.10049687E-02   0.10049687E-02   0.10049687E-02  -0.30198469E-02   0.83280648E-02
  7093.3100       0.93865871E-03   0.93865872E-03   0.93865878E-03   0.93865872E-03   0.78155297E-03   0.21759067E-02
  7093.5500       0.13801141E-02   0.13801141E-02   0.13801142E-02   0.13801141E-02  -0.19754117E-02   0.60774518E-02
  7093.7800       0.10215211E-04   0.10215151E-04   0.10215212E-04   0.10215151E-04   0.36379553E-02   0.24375427E-01
  7094.0200       0.30899531E-02   0.30899532E-02   0.30899533E-02   0.30899532E-02   0.94810391E-02  -0.44524004E-02
  7094.2600       0.45611140E-02   0.45611142E-02   0.45611143E-02   0.45611142E-02   0.15008031E-02  -0.27221693E-01
  7094.4900       0.37953306E-02   0.37953308E-02   0.37953308E-02   0.37953308E-02  -0.33131564E-02  -0.72312365E-02
  7094.7300       0.30039304E-02   0.30039306E-02   0.30039306E-02   0.30039306E-02  -0.18978780E-02   0.58691263E-02
  7094.9700       0.28843491E-02   0.28843493E-02   0.28843493E-02   0.28843493E-02  -0.49597583E-03  -0.66560747E-03
  7095.2100       0.27658620E-02   0.27658622E-02   0.27658622E-02   0.27658622E-02  -0.22173696E-02   0.13561617E-02
  7095.4400       0.18421854E-02   0.18421855E-02   0.18421855E-02   0.18421855E-02   0.14142015E-03   0.10934596E-01
  7095.6800       0.28323295E-02   0.28323296E-02   0.28323297E-02   0.28323296E-02   0.29218907E-02   0.62847379E-03
  7095.9200       0.32446930E-02   0.32446931E-02   0.32446932E-02   0.32446931E-02   0.44308757E-03  -0.57716791E-02
  7096.1500       0.30405807E-02   0.30405808E-02   0.30405809E-02   0.30405808E-02   0.20920155E-03  -0.32242115E-02
  7096.3900       0.33430177E-02   0.33430179E-02   0.33430179E-02   0.33430179E-02  -0.10722919E-02  -0.42931621E-02
  7096.6300       0.25258806E-02   0.25258807E-02   0.25258807E-02   0.25258807E-02  -0.18515163E-02   0.30996105E-02
  7096.8700       0.24542899E-02   0.24542900E-02   0.24542900E-02   0.24542900E-02   0.41552118E-03   0.28990869E-02
  7097.1000       0.27211755E-02   0.27211757E-02   0.27211757E-02   0.27211757E-02  -0.48894541E-03   0.10735947E-02
  7097.3400       0.22244855E-02   0.22244856E-02   0.22244857E-02   0.22244856E-02   0.92011067E-03   0.68213595E-02
  7097.5800       0.31628286E-02   0.31628288E-02   0.31628289E-02   0.31628288E-02   0.27853071E-02   0.12603029E-03
  7097.8200       0.35614330E-02   0.35614331E-02   0.35614332E-02   0.35614331E-02   0.98060521E-03  -0.50500283E-02
  7098.0500       0.36237131E-02   0.36237133E-02   0.36237133E-02   0.36237133E-02   0.41179381E-03  -0.14478281E-02
  7098.2900       0.37549760E-02   0.37549762E-02   0.37549763E-02   0.37549762E-02   0.30012599E-03  -0.17037475E-02
  7098.5300       0.37677736E-02   0.37677738E-02   0.37677738E-02   0.37677738E-02  -0.40600501E-03   0.44128283E-02
  7098.7600       0.35641537E-02   0.35641539E-02   0.35641539E-02   0.35641539E-02   0.23741553E-02   0.27229107E-02
  7099.0000       0.48836266E-02   0.48836268E-02   0.48836269E-02   0.48836268E-02   0.87376301E-03  -0.90675223E-02
  7099.2400       0.39835599E-02   0.39835602E-02   0.39835602E-02   0.39835602E-02  -0.19782554E-02  -0.21837603E-03
  7099.4800       0.39340640E-02   0.39340642E-02   0.39340642E-02   0.39340642E-02   0.76894252E-03   0.26617953E-02
  7099.7100       0.43449629E-02   0.43449632E-02   0.43449632E-02   0.43449632E-02  -0.72721160E-03  -0.83542214E-02
  7099.9500       0.35922745E-02   0.35922747E-02   0.35922748E-02   0.35922747E-02  -0.31575415E-02   0.25537617E-02
  7100.1900       0.28293430E-02   0.28293431E-02   0.28293432E-02   0.28293431E-02   0.49859404E-03   0.19790965E-01
  7100.4300       0.38315997E-02   0.38315999E-02   0.38315999E-02   0.38315999E-02   0.63421217E-02   0.91560237E-02
  7100.6600       0.58101402E-02   0.58101405E-02   0.58101406E-02   0.58101405E-02   0.48019252E-02  -0.18723583E-01
  7100.9000       0.60885045E-02   0.60885049E-02   0.60885049E-02   0.60885049E-02  -0.24579622E-02  -0.12107434E-01
  7101.1400       0.46303183E-02   0.46303186E-02   0.46303187E-02   0.46303186E-02  -0.10096429E-02   0.12264769E-01
  7101.3800       0.56038759E-02   0.56038762E-02   0.56038763E-02   0.56038762E-02   0.34291267E-02  -0.42624441E-02
  7101.6100       0.62420079E-02   0.62420083E-02   0.62420084E-02   0.62420083E-02  -0.30129916E-02  -0.15550202E-01
  7101.8500       0.41877698E-02   0.41877701E-02   0.41877701E-02   0.41877701E-02  -0.38794683E-02   0.85353346E-02
  7102.0900       0.43798631E-02   0.43798634E-02   0.43798634E-02   0.43798634E-02   0.10839690E-02   0.88242998E-02
  7102.3300       0.47080749E-02   0.47080752E-02   0.47080753E-02   0.47080752E-02   0.35619559E-03   0.12350595E-02
  7102.5600       0.45472751E-02   0.45472753E-02   0.45472754E-02   0.45472753E-02   0.16644469E-02   0.13123560E-01
  7102.8000       0.54903650E-02   0.54903653E-02   0.54903654E-02   0.54903653E-02   0.65242686E-02  -0.60417023E-05
  7103.0400       0.76789240E-02   0.76789245E-02   0.76789245E-02   0.76789245E-02   0.16615469E-02  -0.15389890E-01
  7103.2800       0.62879075E-02   0.62879079E-02   0.62879080E-02   0.62879079E-02  -0.86287873E-03   0.75554567E-02
  7103.5200       0.72647422E-02   0.72647427E-02   0.72647427E-02   0.72647427E-02   0.52881661E-02  -0.31496664E-02
  7103.7500       0.87733456E-02   0.87733462E-02   0.87733462E-02   0.87733462E-02  -0.23432219E-02  -0.27503644E-01
  7103.9900       0.61634279E-02   0.61634283E-02   0.61634283E-02   0.61634283E-02  -0.76385464E-02   0.72843421E-02
  7104.2300       0.51068433E-02   0.51068436E-02   0.51068437E-02   0.51068436E-02   0.11532623E-02   0.26978307E-01
  7104.4700       0.67169938E-02   0.67169942E-02   0.67169942E-02   0.67169942E-02   0.53110408E-02   0.70961952E-02
  7104.7000       0.76030325E-02   0.76030330E-02   0.76030331E-02   0.76030330E-02   0.44884740E-02  -0.49105999E-02
  7104.9400       0.88265766E-02   0.88265771E-02   0.88265772E-02   0.88265771E-02   0.30030589E-02  -0.40062356E-02
  7105.1800       0.90445008E-02   0.90445014E-02   0.90445014E-02   0.90445014E-02   0.25654809E-02  -0.12101345E-01
  7105.4200       0.10058007E-01   0.10058008E-01   0.10058008E-01   0.10058008E-01  -0.28055870E-02  -0.97753248E-02
  7105.6600       0.76978190E-02   0.76978195E-02   0.76978196E-02   0.76978195E-02  -0.21266750E-02   0.18640041E-01
  7105.8900       0.90584701E-02   0.90584707E-02   0.90584707E-02   0.90584707E-02   0.59552321E-02   0.72438376E-02
  7106.1300       0.10496778E-01   0.10496779E-01   0.10496779E-01   0.10496779E-01   0.12779287E-02  -0.12183564E-01
  7106.3700       0.96718759E-02   0.96718765E-02   0.96718765E-02   0.96718765E-02   0.10712134E-03   0.92583554E-02
  7106.6100       0.10548196E-01   0.10548197E-01   0.10548197E-01   0.10548197E-01   0.57219392E-02   0.50465677E-02
  7106.8400       0.12361187E-01   0.12361188E-01   0.12361188E-01   0.12361188E-01   0.24790082E-02  -0.12115820E-01
  7107.0800       0.11713330E-01   0.11713331E-01   0.11713331E-01   0.11713331E-01   0.27503942E-04  -0.64326032E-02
  7107.3200       0.12374389E-01   0.12374390E-01   0.12374390E-01   0.12374390E-01  -0.60864135E-03  -0.43713077E-02
  7107.5600       0.11421182E-01   0.11421183E-01   0.11421183E-01   0.11421183E-01  -0.20707237E-02   0.87898650E-02
  7107.8000       0.11380442E-01   0.11380443E-01   0.11380443E-01   0.11380443E-01   0.36104939E-02   0.19324142E-01
  7108.0300       0.13118115E-01   0.13118115E-01   0.13118115E-01   0.13118115E-01   0.70116229E-02  -0.10237481E-02
  7108.2700       0.14675905E-01   0.14675906E-01   0.14675906E-01   0.14675906E-01   0.31293322E-02  -0.12148756E-01
  7108.5100       0.14620194E-01   0.14620195E-01   0.14620195E-01   0.14620195E-01   0.11802198E-02   0.48761988E-02
  7108.7500       0.15242410E-01   0.15242411E-01   0.15242411E-01   0.15242411E-01   0.54699076E-02   0.87031281E-02
  7108.9900       0.17245750E-01   0.17245751E-01   0.17245751E-01   0.17245751E-01   0.53577213E-02  -0.13724669E-01
  7109.2200       0.17760539E-01   0.17760540E-01   0.17760540E-01   0.17760540E-01  -0.98068676E-03  -0.61488555E-02
  7109.4600       0.16784827E-01   0.16784828E-01   0.16784828E-01   0.16784828E-01   0.24677592E-02   0.28580287E-01
  7109.7000       0.18945064E-01   0.18945065E-01   0.18945065E-01   0.18945065E-01   0.12737851E-01   0.21001032E-01
  7109.9400       0.22898995E-01   0.22898997E-01   0.22898997E-01   0.22898997E-01   0.12548255E-01  -0.53176300E-02
  7110.1800       0.24968226E-01   0.24968227E-01   0.24968227E-01   0.24968227E-01   0.10185389E-01  -0.66359289E-03
  7110.4200       0.27787982E-01   0.27787984E-01   0.27787984E-01   0.27787984E-01   0.12229730E-01   0.13167815E-01
  7110.6500       0.30716199E-01   0.30716201E-01   0.30716201E-01   0.30716201E-01   0.16374262E-01   0.19861432E-01
  7110.8900       0.35483885E-01   0.35483887E-01   0.35483887E-01   0.35483887E-01   0.21564603E-01   0.22464764E-01
  7111.1300       0.41067208E-01   0.41067211E-01   0.41067211E-01   0.41067211E-01   0.27157349E-01   0.56442750E-02
  7111.3700       0.48519412E-01   0.48519415E-01   0.48519416E-01   0.48519415E-01   0.24273855E-01  -0.25515423E-01
  7111.6100       0.52718658E-01   0.52718662E-01   0.52718662E-01   0.52718662E-01   0.14909945E-01  -0.26044546E-01
  7111.8400       0.55527086E-01   0.55527090E-01   0.55527090E-01   0.55527090E-01   0.12032918E-01   0.71934393E-03
  7112.0800       0.58374130E-01   0.58374134E-01   0.58374134E-01   0.58374134E-01   0.15248037E-01   0.40481661E-02
  7112.3200       0.62846144E-01   0.62846149E-01   0.62846149E-01   0.62846149E-01   0.13976038E-01  -0.44698980E-02
  7112.5600       0.65082628E-01   0.65082633E-01   0.65082633E-01   0.65082633E-01   0.13102486E-01   0.10933376E-01
  7112.8000       0.69135338E-01   0.69135342E-01   0.69135342E-01   0.69135342E-01   0.19224059E-01  -0.49316190E-02
  7113.0400       0.74310176E-01   0.74310181E-01   0.74310182E-01   0.74310181E-01   0.10735309E-01  -0.24238034E-01
  7113.2700       0.74180933E-01   0.74180938E-01   0.74180938E-01   0.74180938E-01   0.78321824E-02  -0.51622466E-02
  7113.5100       0.77991302E-01   0.77991307E-01   0.77991308E-01   0.77991307E-01   0.83090530E-02  -0.14067297E-01
  7113.7500       0.78169278E-01   0.78169284E-01   0.78169284E-01   0.78169284E-01   0.10798797E-02  -0.32000010E-01
  7113.9900       0.78509644E-01   0.78509650E-01   0.78509650E-01   0.78509650E-01  -0.70509518E-02  -0.32042719E-01
  7114.2300       0.74784821E-01   0.74784827E-01   0.74784827E-01   0.74784827E-01  -0.14300625E-01  -0.56354616E-02
  7114.4700       0.71645344E-01   0.71645349E-01   0.71645349E-01   0.71645349E-01  -0.97559734E-02   0.15105905E-01
  7114.7100       0.70101954E-01   0.70101959E-01   0.70101959E-01   0.70101959E-01  -0.70497911E-02   0.13926055E-01
  7114.9400       0.68331942E-01   0.68331947E-01   0.68331947E-01   0.68331947E-01  -0.32107277E-02   0.68039115E-02
  7115.1800       0.68592912E-01   0.68592917E-01   0.68592917E-01   0.68592917E-01  -0.38519527E-02   0.97754217E-02
  7115.4200       0.66483005E-01   0.66483010E-01   0.66483010E-01   0.66483010E-01   0.14814747E-02   0.44632079E-01
  7115.6600       0.69304020E-01   0.69304025E-01   0.69304025E-01   0.69304025E-01   0.17571445E-01   0.43677978E-01
  7115.9000       0.74917299E-01   0.74917304E-01   0.74917304E-01   0.74917304E-01   0.22446904E-01   0.26904750E-01
  7116.1400       0.80078534E-01   0.80078540E-01   0.80078540E-01   0.80078540E-01   0.30485725E-01   0.38182958E-01
  7116.3800       0.89550447E-01   0.89550453E-01   0.89550453E-01   0.89550453E-01   0.40774724E-01   0.29309480E-01
  7116.6100       0.99242654E-01   0.99242661E-01   0.99242661E-01   0.99242661E-01   0.44261181E-01   0.29397404E-01
  7116.8500       0.11035320       0.11035321       0.11035321       0.11035321       0.54591504E-01   0.46961981E-01
  7117.0900       0.12544658       0.12544659       0.12544659       0.12544659       0.66802932E-01   0.43524119E-01
  7117.3300       0.14241861       0.14241862       0.14241862       0.14241862       0.75483081E-01   0.34915543E-01
  7117.5700       0.16167846       0.16167847       0.16167847       0.16167847       0.83562393E-01   0.50867794E-01
  7117.8100       0.18252856       0.18252857       0.18252857       0.18252857       0.99899622E-01   0.77672987E-01
  7118.0500       0.20963027       0.20963029       0.20963029       0.20963029       0.12084543       0.66571145E-01
  7118.2800       0.23932591       0.23932592       0.23932593       0.23932592       0.13118806       0.30612249E-01
  7118.5200       0.27128866       0.27128868       0.27128868       0.27128868       0.13523318       0.18588991E-01
  7118.7600       0.30423784       0.30423786       0.30423786       0.30423786       0.14011078       0.17621880E-01
  7119.0000       0.33854184       0.33854186       0.33854186       0.33854186       0.14369169       0.25739403E-02
  7119.2400       0.37320985       0.37320987       0.37320987       0.37320987       0.14134627      -0.22771412E-01
  7119.4800       0.40638804       0.40638807       0.40638807       0.40638807       0.13276141      -0.47860971E-01
  7119.7200       0.43693532       0.43693535       0.43693535       0.43693535       0.11837300      -0.47313220E-01
  7119.9600       0.46320708       0.46320712       0.46320712       0.46320712       0.11005106      -0.23178466E-01
  7120.1900       0.48865932       0.20506754       0.48869177       0.20509995       0.10747912      -0.14700449E-01
  7120.4300       0.51372227        1.4821557       0.51391054        1.4823439       0.10314185      -0.30908823E-01
  7120.6700       0.53816741        1.4659293       0.53851134        1.4662731       0.92642888E-01  -0.38442060E-01
  7120.9100       0.55819086        1.4500496       0.55869029        1.4505490       0.84689663E-01  -0.15054187E-01
  7121.1500       0.57881845        1.4345129       0.57947323        1.4351676       0.85416878E-01   0.38836807E-02
  7121.3900       0.59919096        1.4193152       0.60000094        1.4201252       0.86553829E-01   0.28975405E-02
  7121.6300       0.62036429        1.4044529       0.62132931        1.4054179       0.86807698E-01  -0.12772731E-01
  7121.8700       0.64085865        1.3899220       0.64197856        1.3910419       0.80422919E-01  -0.70297233E-02
  7122.1100       0.65896729        1.3757187       0.66024193        1.3769933       0.83433430E-01   0.43693343E-01
  7122.3500       0.68090670        1.3618392       0.68233592        1.3632684       0.10139572       0.45021034E-01
  7122.5800       0.70662328        1.3488384       0.70820048        1.3504155       0.10459332      -0.41263655E-02
  7122.8200       0.73006556        1.3355819       0.73179704        1.3373133       0.99456331E-01  -0.38740660E-02
  7123.0600       0.75436232        1.3226379       0.75624791        1.3245234       0.10273376       0.81196397E-02
  7123.3000       0.77937777        1.3100025       0.78141733        1.3120420       0.10335376       0.19544218E-01
  7123.5400       0.80397212        1.2976720       0.80616549        1.2998653       0.11211499       0.37136217E-01
  7123.7800       0.83319296        1.2856424       0.83553998        1.2879894       0.12117914      -0.18993869E-02
  7124.0200       0.86213811        1.2739100       0.86463862        1.2764105       0.11120328      -0.28601734E-01
  7124.2600       0.88657054        1.2624709       0.88922439        1.2651247       0.10745031      -0.78652707E-02
  7124.5000       0.91371426        1.2513214       0.91652130        1.2541283       0.10742795      -0.62044329E-02
  7124.7400       0.93813596        1.2404574       0.94109603        1.2434175       0.10447218      -0.20914877E-01
  7124.9800       0.96386091        1.2298754       0.96697385        1.2329883       0.97388813E-01  -0.51564195E-01
  7125.2100       0.98390870        1.2199952       0.98716801        1.2232544       0.80237011E-01  -0.42552038E-01
  7125.4500        1.0015723        1.2099540        1.0049842        1.2133658       0.77389355E-01  -0.11508101E-01
  7125.6900        1.0210556        1.2001833        1.0246199        1.2037475       0.74713123E-01  -0.17874198E-01
  7125.9300        1.0374346        1.1906793        1.0411512        1.1943957       0.68809740E-01  -0.30523919E-01
  7126.1700        1.0540843        1.1814381        1.0579529        1.1853067       0.60061642E-01  -0.55175581E-01
  7126.4100        1.0662642        1.1724560        1.0702848        1.1764766       0.42325461E-01  -0.38596372E-01
  7126.6500        1.0744005        1.1637291        1.0785729        1.1679014       0.41535384E-01   0.97563893E-02
  7126.8900        1.0862012        1.1552536        1.0905252        1.1595776       0.47008528E-01  -0.52480857E-02
  7127.1300        1.0969646        1.1470256        1.1014401        1.1515011       0.39016302E-01  -0.30243128E-01
  7127.3700        1.1049290        1.1390414        1.1095559        1.1436682       0.32491826E-01  -0.19749712E-01
  7127.6100        1.1125607        1.1312970        1.1173387        1.1360750       0.29536440E-01  -0.10757376E-01
  7127.8500        1.1191065        1.1237887        1.1240355        1.1287177       0.27328286E-01  -0.11388775E-01
  7128.0900        1.1256782        1.1165127        1.1307582        1.1215925       0.24069828E-01  -0.12263051E-01
  7128.3300        1.1306600        1.1094650        1.1358906        1.1146956       0.21442022E-01   0.20462816E-02
  7128.5700        1.1359704        1.1026420        1.1413516        1.1080231       0.25052043E-01   0.40144959E-02
  7128.8000        1.1424345        1.0963104        1.1479598        1.1018356       0.23328835E-01  -0.21972822E-01
  7129.0400        1.1469350        1.0899160        1.1526105        1.0955915       0.14724817E-01  -0.29453023E-01
  7129.2800        1.1495024        1.0837350        1.1553280        1.0895605       0.91913836E-02  -0.59939355E-02
  7129.5200        1.1513468        1.0777633        1.1573224        1.0837388       0.11847728E-01   0.42767286E-02
  7129.7600        1.1551893        1.0719972        1.1613147        1.0781225       0.11244213E-01  -0.15346540E-01
  7130.0000        1.1567440        1.0664329        1.1630191        1.0727079       0.44813888E-02  -0.82208729E-02
  7130.2400        1.1573404        1.0610666        1.1637648        1.0674910       0.72981943E-02   0.78205617E-02
  7130.4800        1.1602472        1.0558944        1.1668210        1.0624681       0.82352584E-02  -0.17156545E-01
  7130.7200        1.1612933        1.0509124        1.1680162        1.0576353      -0.93694740E-03  -0.38372459E-01
  7130.9600        1.1597974        1.0461169        1.1666694        1.0529888      -0.10183522E-01  -0.10854003E-01
  7131.2000        1.1564052        1.0415041        1.1634260        1.0485248      -0.61468690E-02   0.16535237E-01
  7131.4400        1.1568469        1.0370700        1.1640165        1.0442394      -0.22466079E-02  -0.79196573E-02
  7131.6800        1.1553268        1.0328109        1.1626449        1.0401289      -0.99483045E-02  -0.24941914E-01
  7131.9200        1.1520718        1.0287230        1.1595382        1.0361894      -0.14218727E-01  -0.16835381E-02
  7132.1600        1.1485018        1.0248024        1.1561165        1.0324170      -0.10756403E-01   0.13342112E-01
  7132.4000        1.1469087        1.0210453        1.1546714        1.0288079      -0.78145130E-02  -0.40067203E-02
  7132.6400        1.1447509        1.0174478        1.1526615        1.0253584      -0.12679629E-01  -0.18741806E-01
  7132.8800        1.1408225        1.0140062        1.1488809        1.0220645      -0.16810580E-01  -0.54900089E-02
  7133.1200        1.1366818        1.0107165        1.1448878        1.0189225      -0.15314833E-01   0.19244773E-01
  7133.3600        1.1334713        1.0075751        1.1418249        1.0159285      -0.75730889E-02   0.63116297E-02
  7133.6000        1.1330467        1.0045780        1.1415475        1.0130787      -0.12285251E-01  -0.17872580E-01
  7133.8400        1.1275744        1.0017214        1.1362224        1.0103693      -0.16151927E-01   0.15165193E-02
  7134.0800        1.1252938       0.99900154        1.1340887        1.0077964      -0.11557321E-01   0.15418469E-01
  7134.3200        1.1220269       0.99641452        1.1309687        1.0053562      -0.87510623E-02   0.54111682E-02
  7134.5600        1.1210933       0.99395654        1.1301817        1.0030449      -0.89599606E-02   0.61759612E-02
  7134.8000        1.1177261       0.99162377        1.1269611        1.0008587      -0.57866009E-02   0.12394950E-01
  7135.0400        1.1183157       0.98941238        1.1276971       0.99879366      -0.30103847E-02  -0.16663806E-01
  7135.2800        1.1162811       0.98731854        1.1258087       0.99684603      -0.13785228E-01  -0.20904450E-01
  7135.5200        1.1116988       0.98533842        1.1213724       0.99501197      -0.13044521E-01   0.13559631E-01
  7135.7600        1.1100198       0.98346820        1.1198393       0.99328766      -0.72766050E-02   0.33029363E-02
  7136.0000        1.1082060       0.98170405        1.1181713       0.99166926      -0.11459111E-01  -0.23616834E-01
  7136.2400        1.1045194       0.98004214        1.1146303       0.99015294      -0.18612686E-01  -0.78693829E-02
  7136.4800        1.0992719       0.97847864        1.1095282       0.98873488      -0.15236415E-01   0.24371274E-01
  7136.7200        1.0972059       0.97700973        1.1076075       0.98741125      -0.69144739E-02   0.16699377E-01
  7136.9600        1.0959530       0.97563156        1.1064997       0.98617821      -0.72207139E-02   0.12431681E-02
  7137.2000        1.0937400       0.97434033        1.1044317       0.98503195      -0.63177532E-02   0.91099695E-03
  7137.4400        1.0929205       0.97313220        1.1037570       0.98396863      -0.67834354E-02  -0.68325824E-02
  7137.6800        1.0904839       0.97200333        1.1014651       0.98298443      -0.95973927E-02  -0.93403620E-03
  7137.9200        1.0883137       0.97094991        1.0994394       0.98207552      -0.72317728E-02   0.23155162E-02
  7138.1600        1.0870127       0.96996810        1.0982827       0.98123807      -0.84859450E-02  -0.18388821E-01
  7138.4000        1.0842405       0.96905408        1.0956547       0.98046824      -0.16058407E-01  -0.19683452E-01
  7138.6400        1.0793046       0.96820402        1.0908629       0.97976222      -0.17934002E-01   0.78875802E-02
  7138.8800        1.0756321       0.96741409        1.0873343       0.97911618      -0.12272368E-01   0.17323942E-01
  7139.1200        1.0734139       0.96668046        1.0852598       0.97852628      -0.96185098E-02   0.13910026E-01
  7139.3600        1.0710153       0.96599930        1.0830047       0.97798870      -0.55955560E-02   0.16954045E-02
  7139.6000        1.0707280       0.96536679        1.0828609       0.97749961      -0.88047156E-02  -0.21980012E-01
  7139.8400        1.0667890       0.96477910        1.0790651       0.97705518      -0.16145962E-01  -0.89295523E-02
  7140.0800        1.0629780       0.96423240        1.0753972       0.97665159      -0.13090901E-01   0.19099996E-01
  7140.3200        1.0605054       0.96372285        1.0730676       0.97628500      -0.69779640E-02  -0.35452283E-02
  7140.5600        1.0596286       0.96324665        1.0723336       0.97595160      -0.14792610E-01  -0.22810943E-01
  7140.8000        1.0534049       0.96279994        1.0662526       0.97564754      -0.17927217E-01   0.66814988E-02
  7141.0400        1.0510235       0.96237891        1.0640136       0.97536900      -0.11585491E-01   0.12062657E-01
  7141.2800        1.0478439       0.96197973        1.0609764       0.97511216      -0.12137141E-01   0.16833217E-01
  7141.5200        1.0451977       0.96159858        1.0584723       0.97487318      -0.35055469E-02   0.12034511E-01
  7141.7600        1.0461612       0.96123161        1.0595779       0.97464824      -0.63605764E-02  -0.25895691E-01
  7142.0000        1.0421446       0.96087501        1.0557032       0.97443350      -0.15935479E-01  -0.24502380E-01
  7142.2400        1.0385122       0.96052495        1.0522125       0.97422515      -0.18121719E-01   0.35981209E-02
  7142.4800        1.0334462       0.96017851        1.0472880       0.97402028      -0.14208381E-01   0.11343626E-01
  7142.7200        1.0316922       0.95983528        1.0456754       0.97381845      -0.12676778E-01  -0.10783404E-02
  7142.9600        1.0273613       0.95949524        1.0414858       0.97361966      -0.14725984E-01  -0.95958196E-03
  7143.2000        1.0246237       0.95915837        1.0388893       0.97342389      -0.13137377E-01   0.97326607E-02
  7143.4400        1.0210554       0.95882467        1.0354619       0.97323112      -0.10054307E-01   0.11335856E-01
  7143.6800        1.0197976       0.95849411        1.0343449       0.97304135      -0.76961664E-02  -0.50640510E-02
  7143.9200        1.0173612       0.95816670        1.0320491       0.97285456      -0.12485051E-01  -0.17271048E-01
  7144.1600        1.0138048       0.95784240        1.0286332       0.97267074      -0.15986270E-01  -0.34444793E-02
  7144.4100        1.0095279       0.95750790        1.0245025       0.97248240      -0.14172846E-01  -0.72754147E-02
  7144.6500        1.0068601       0.95718994        1.0219748       0.97230460      -0.19551223E-01  -0.15581395E-01
  7144.8900        1.0001433       0.95687507        1.0153981       0.97212972      -0.21651916E-01   0.13742895E-01
  7145.1300       0.99646717       0.95656326        1.0118617       0.97195776      -0.12954633E-01   0.25212599E-01
  7145.3700       0.99392512       0.95625451        1.0094594       0.97178871      -0.95498685E-02  -0.23377910E-02
  7145.6100       0.99188324       0.95594881        1.0075570       0.97162254      -0.14076773E-01  -0.17858163E-01
  7145.8500       0.98716827       0.95564613        1.0029814       0.97145924      -0.18121787E-01  -0.28688937E-03
  7146.0900       0.98318478       0.95534647       0.99913718       0.97129881      -0.14214480E-01   0.48176504E-02
  7146.3300       0.98034532       0.95504982       0.99643679       0.97114122      -0.15809314E-01   0.47210215E-03
  7146.5700       0.97559631       0.95475616       0.99182669       0.97098647      -0.13987871E-01   0.10708245E-01
  7146.8100       0.97363114       0.95446547       0.99000029       0.97083455      -0.10669357E-01  -0.31418100E-02
  7147.0500       0.97047502       0.95417775       0.98698276       0.97068543      -0.15495940E-01  -0.10398385E-01
  7147.2900       0.96619309       0.95389298       0.98283929       0.97053911      -0.15660582E-01   0.20200272E-02
  7147.5300       0.96295794       0.95361114       0.97974243       0.97039557      -0.14526327E-01  -0.28779898E-02
  7147.7700       0.95922046       0.95333223       0.97614308       0.97025480      -0.17042017E-01   0.29785100E-02
  7148.0200       0.95460735       0.95304480       0.97167371       0.97011109      -0.13066857E-01   0.40267399E-02
  7148.2600       0.95281770       0.95277182       0.97002188       0.96997593      -0.15068914E-01  -0.17748203E-01
  7148.5000       0.94737427       0.95250173       0.96471612       0.96984351      -0.21585994E-01   0.46666640E-02
  7148.7400       0.94245642       0.95223450       0.95993578       0.96971379      -0.12828916E-01   0.26437165E-01
  7148.9800       0.94121639       0.95197014       0.95883310       0.96958678      -0.88961548E-02  -0.21406235E-02
  7149.2200       0.93818626       0.95170862       0.95594018       0.96946246      -0.13856415E-01  -0.14460002E-01
  7149.4600       0.93456531       0.95144993       0.95245627       0.96934082      -0.15836956E-01   0.17474323E-02
  7149.7000       0.93058453       0.95119405       0.94861238       0.96922184      -0.13017647E-01   0.93635689E-02
  7149.9400       0.92831684       0.95094099       0.94648143       0.96910551      -0.11342443E-01  -0.58265143E-02
  7150.1800       0.92514015       0.95069071       0.94344132       0.96899182      -0.15814374E-01  -0.56965312E-02
  7150.4200       0.92072594       0.95044322       0.93916353       0.96888075      -0.14076778E-01   0.15811052E-01
  7150.6700       0.91824253       0.95018835       0.93682207       0.96876783      -0.80669589E-02   0.11603323E-01
  7150.9100       0.91677313       0.94994649       0.93548878       0.96866207      -0.83911491E-02  -0.85694584E-02
  7151.1500       0.91421478       0.94970736       0.93306638       0.96855890      -0.12180299E-01  -0.12340643E-01
  7151.3900       0.91092659       0.94947097       0.92991398       0.96845830      -0.14314658E-01  -0.83441381E-02
  7151.6300       0.90734374       0.94923728       0.92646678       0.96836025      -0.16185485E-01   0.99786020E-02
  7151.8700       0.90315755       0.94900629       0.92241608       0.96826475      -0.95249288E-02   0.23040633E-01
  7152.1100       0.90277178       0.94877799       0.92216564       0.96817178      -0.51259816E-02  -0.15113700E-02
  7152.3500       0.90069708       0.94855236       0.92022612       0.96808133      -0.10250386E-01  -0.13985951E-02
  7152.5900       0.89785159       0.94832939       0.91751565       0.96799338      -0.57973073E-02   0.57597671E-02
  7152.8300       0.89791438       0.94810906       0.91771330       0.96790793      -0.74856982E-02  -0.13471445E-01
  7153.0800       0.89418360       0.94788236       0.91412285       0.96782154      -0.12398315E-01  -0.23470872E-03
  7153.3200       0.89183920       0.94766739       0.91191300       0.96774113      -0.76007054E-02   0.15666620E-01
  7153.5600       0.89053526       0.94745504       0.91074346       0.96766317      -0.48783376E-02   0.15126641E-02
  7153.8000       0.88949760       0.94724527       0.90984003       0.96758764      -0.68746267E-02  -0.16891922E-01
  7154.0400       0.88723544       0.94703809       0.90771196       0.96751454      -0.12986460E-01  -0.43318331E-02
  7154.2800       0.88326410       0.94683347       0.90387455       0.96744385      -0.89539066E-02   0.28208353E-01
  7154.5200       0.88293757       0.94663140       0.90368179       0.96737556       0.55354964E-03   0.15768478E-01
  7154.7600       0.88352980       0.94643187       0.90440764       0.96730965      -0.13850373E-02  -0.18231391E-01
  7155.0100       0.88225890       0.94622672       0.90327576       0.96724352      -0.83798321E-02  -0.20827317E-01
  7155.2500       0.87942368       0.94603234       0.90057385       0.96718244      -0.11590423E-01   0.20168622E-02
  7155.4900       0.87669550       0.94584046       0.89797881       0.96712371      -0.74117383E-02   0.13799224E-01
  7155.7300       0.87586605       0.94565106       0.89728235       0.96706730      -0.49667953E-02   0.90963718E-02
  7155.9700       0.87431143       0.94546414       0.89586057       0.96701322      -0.30454798E-02  -0.36596331E-04
  7156.2100       0.87440422       0.94527968       0.89608604       0.96696144      -0.49843616E-02  -0.28453975E-02
  7156.4500       0.87191894       0.94509766       0.89373329       0.96691195      -0.44112706E-02   0.11280830E-01
  7156.7000       0.87224270       0.94491065       0.89419493       0.96686282       0.54324513E-03   0.48465032E-03
  7156.9400       0.87218513       0.94473359       0.89426957       0.96681797      -0.41737919E-02  -0.39966694E-02
  7157.1800       0.87023928       0.94455893       0.89245577       0.96677537      -0.13751562E-02   0.19891950E-01
  7157.4200       0.87152506       0.94438667       0.89387345       0.96673501       0.53743439E-02  -0.10939795E-01
  7157.6600       0.87281896       0.94421679       0.89529910       0.96669687      -0.66262577E-02  -0.31754742E-01
  7157.9000       0.86834445       0.94404928       0.89095618       0.96666095      -0.98679322E-02   0.13251928E-01
  7158.1400       0.86808236       0.94388412       0.89082552       0.96662722      -0.26533241E-03   0.19987409E-01
  7158.3900       0.86821444       0.94371457       0.89109435       0.96659441      -0.74101714E-04   0.16664568E-02
  7158.6300       0.86804605       0.94355417       0.89105707       0.96656513       0.55123141E-03   0.33431105E-02
  7158.8700       0.86847903       0.94339609       0.89162102       0.96653802       0.15305913E-02  -0.81618121E-02
  7159.1100       0.86878073       0.94324031       0.89205352       0.96651304      -0.33664384E-02  -0.94887398E-02
  7159.3500       0.86686314       0.94308681       0.89026658       0.96649020      -0.30240038E-02   0.73270153E-02
  7159.5900       0.86732921       0.94293559       0.89086315       0.96646948       0.15052895E-03   0.11562110E-02
  7159.8400       0.86693690       0.94278048       0.89060661       0.96645013      -0.24574604E-02   0.41244427E-02
  7160.0800       0.86612505       0.94263386       0.88992494       0.96643369       0.21715059E-02   0.17534134E-01
  7160.3200       0.86797922       0.94248948       0.89190914       0.96641933       0.59589239E-02   0.63988347E-02
  7160.5600       0.86898534       0.94234731       0.89304512       0.96640703       0.52429465E-02  -0.16592632E-01
  7160.8000       0.87049584       0.94220736       0.89468533       0.96639679      -0.20055394E-02  -0.30211794E-01
  7161.0400       0.86802268       0.94206959       0.89234173       0.96638859      -0.92587145E-02   0.73701022E-02
  7161.2900       0.86595907       0.94192841       0.89041291       0.96638220       0.16058107E-02   0.38034493E-01
  7161.5300       0.86880952       0.94179509       0.89339261       0.96637812       0.93781870E-02   0.10053462E-01
  7161.7700       0.87046060       0.94166392       0.89517277       0.96637603       0.64314724E-02  -0.14683624E-01
  7162.0100       0.87189663       0.94153489       0.89673774       0.96637594       0.23300476E-02  -0.86076821E-02
  7162.2500       0.87157902       0.94140799       0.89654890       0.96637781       0.22997850E-02   0.58420660E-02
  7162.4900       0.87300053       0.94128320       0.89809903       0.96638165       0.51342393E-02  -0.27537079E-02
  7162.7400       0.87409480       0.94115545       0.89932712       0.96638771       0.95046813E-03  -0.20501908E-01
  7162.9800       0.87346626       0.94103494       0.89882688       0.96639551      -0.49116958E-02  -0.32494003E-02
  7163.2200       0.87173718       0.94091650       0.89722596       0.96640522      -0.60924401E-03   0.30695387E-01
  7163.4600       0.87317382       0.94080013       0.89879059       0.96641684       0.98220898E-02   0.20489870E-01
  7163.7000       0.87645178       0.94068580       0.90219639       0.96643035       0.92258938E-02  -0.23442669E-01
  7163.9500       0.87769451       0.94056887       0.90357212       0.96644642      -0.16648179E-02  -0.28125360E-01
  7164.1900       0.87563602       0.94045869       0.90164116       0.96646376      -0.45555325E-02   0.13308826E-01
  7164.4300       0.87550785       0.94035051       0.90164035       0.96648294       0.47234186E-02   0.30467779E-01
  7164.6700       0.87790326       0.94024432       0.90416298       0.96650397       0.10069001E-01   0.11424200E-02
  7164.9100       0.88034097       0.94014012       0.90672774       0.96652682       0.52717802E-02  -0.17640732E-01
  7165.1600       0.88048644       0.94003366       0.90700539       0.96655255       0.14250427E-02  -0.97306208E-02
  7165.4000       0.88103924       0.93993346       0.90768494       0.96657909       0.50377595E-03   0.12124076E-01
  7165.6400       0.88072825       0.93983520       0.90750053       0.96660742       0.72445992E-02   0.11155647E-01
  7165.8800       0.88451665       0.93973887       0.91141536       0.96663752       0.58584863E-02  -0.19028739E-01
  7166.1200       0.88354032       0.93964445       0.91056530       0.96666937      -0.18891957E-02   0.31738382E-02
  7166.3700       0.88359095       0.93954813       0.91074730       0.96670442       0.74136670E-02   0.18387300E-01
  7166.6100       0.88717302       0.93945758       0.91445533       0.96673982       0.71205815E-02  -0.54169594E-02
  7166.8500       0.88700882       0.93936890       0.91441694       0.96677695       0.48135265E-02   0.81847921E-03
  7167.0900       0.88948351       0.93928209       0.91701727       0.96681579       0.75134515E-02  -0.80193353E-02
  7167.3300       0.89061528       0.93919712       0.91827453       0.96685631       0.96424553E-03  -0.99641493E-02
  7167.5800       0.88995599       0.93911057       0.91774580       0.96690031       0.26310184E-02   0.16401561E-01
  7167.8200       0.89190448       0.93902934       0.91981946       0.96694426       0.90010106E-02   0.10949348E-01
  7168.0600       0.89427648       0.93894991       0.92231648       0.96698985       0.78867053E-02  -0.75487160E-02
  7168.3000       0.89569010       0.93887228       0.92385497       0.96703709       0.53776269E-02  -0.40963778E-02
  7168.5500       0.89691152       0.93879331       0.92520628       0.96708802       0.58794802E-02  -0.51401521E-04
  7168.7900       0.89857104       0.93871930       0.92699036       0.96713856       0.53524402E-02  -0.83710673E-02
  7169.0300       0.89948069       0.93864705       0.92802440       0.96719070       0.18613679E-02  -0.10118413E-01
  7169.2700       0.89946450       0.93857654       0.92813245       0.96724442       0.49560209E-03   0.74950384E-02
  7169.5100       0.89971858       0.93850775       0.92851061       0.96729972       0.54589863E-02   0.19439145E-01
  7169.7600       0.90213940       0.93843793       0.93106052       0.96735898       0.10020783E-01   0.43496706E-02
  7170.0000       0.90462876       0.93837263       0.93367364       0.96741745       0.75903249E-02  -0.65169974E-02
  7170.2400       0.90578276       0.93830902       0.93495125       0.96747745       0.68926242E-02  -0.25251967E-02
  7170.4800       0.90793722       0.93824709       0.93722917       0.96753897       0.63782305E-02  -0.76261570E-02
  7170.7300       0.90890809       0.93818434       0.93832848       0.96760466       0.31558072E-02   0.91167137E-02
  7170.9700       0.90948356       0.93812578       0.93902709       0.96766924       0.10845420E-01   0.18208216E-01
  7171.2100       0.91411389       0.93806886       0.94378040       0.96773530       0.11895751E-01  -0.81040004E-02
  7171.4500       0.91519352       0.93801356       0.94498286       0.96780283       0.69555000E-02  -0.62305618E-02
  7171.7000       0.91752209       0.93795766       0.94743920       0.96787471       0.88427754E-02   0.78653247E-02
  7171.9400       0.91952648       0.93790563       0.94956611       0.96794519       0.10809509E-01  -0.61793047E-02
  7172.1800       0.92271065       0.93785518       0.95287264       0.96801710       0.58767091E-02  -0.15667128E-01
  7172.4200       0.92234730       0.93780630       0.95263149       0.96809042       0.32892876E-02   0.40002753E-02
  7172.6700       0.92432240       0.93775703       0.95473372       0.96816828       0.78368440E-02  -0.55095323E-02
  7172.9100       0.92618736       0.93771131       0.95672055       0.96824444       0.58961682E-03  -0.40601578E-02
  7173.1500       0.92460542       0.93766712       0.95526034       0.96832198       0.58879683E-02   0.18413221E-01
  7173.3900       0.92901358       0.93762444       0.95979008       0.96840087       0.94279629E-02  -0.82134197E-02
  7173.6400       0.92922512       0.93758157       0.96012809       0.96848448       0.18633927E-02  -0.11308627E-01
  7173.8800       0.92992665       0.93754194       0.96095087       0.96856611       0.38867357E-02   0.56614492E-02
  7174.1200       0.93109076       0.93750379       0.96223609       0.96864906       0.45808883E-02   0.75185715E-02
  7174.3600       0.93212547       0.93746710       0.96339175       0.96873331       0.74956500E-02   0.68502639E-02
  7174.6100       0.93476362       0.93743041       0.96615572       0.96882245       0.79375176E-02  -0.19454551E-02
  7174.8500       0.93601486       0.93739666       0.96752758       0.96890932       0.65423770E-02   0.51415981E-03
  7175.0900       0.93790397       0.93736433       0.96953717       0.96899747       0.81843143E-02   0.34769869E-02
  7175.3300       0.93994333       0.93733341       0.97169685       0.96908686       0.82113307E-02  -0.61408125E-02
  7175.5800       0.94192752       0.93730268       0.97380621       0.96918130       0.51753162E-02  -0.91984288E-02
  7175.8200       0.94247923       0.93727459       0.97447792       0.96927322       0.37041006E-02  -0.29872167E-02
  7176.0600       0.94370549       0.93724787       0.97582403       0.96936634       0.37414522E-02   0.86491637E-02
  7176.3100       0.94431254       0.93722147       0.97655576       0.96946462       0.79421908E-02   0.68056103E-02
  7176.5500       0.94759716       0.93719750       0.97995991       0.96956018       0.70762012E-02  -0.32521195E-01
  7176.7900       0.94770912       0.93717486       0.98019124       0.96965691      -0.76679831E-02  -0.29343187E-01
  7177.0300       0.94391653       0.93715353       0.97651787       0.96975480      -0.70085285E-02   0.28796593E-01
  7177.2800       0.94427494       0.93713269       0.97700031       0.96985799       0.64423476E-02   0.31722706E-01
  7177.5200       0.94707328       0.93711400       0.97991755       0.96995820       0.85355975E-02  -0.80970369E-02
  7177.7600       0.94837203       0.93709659       0.98133504       0.97005954       0.25557699E-02  -0.12414166E-01
  7178.0100       0.94832560       0.93707979       0.98141215       0.97016627       0.24526561E-02  -0.38308798E-03
  7178.2500       0.94957383       0.93706494       0.98277881       0.97026985       0.23680568E-02  -0.10521241E-03
  7178.4900       0.94946227       0.93705132       0.98278553       0.97037450       0.24021542E-02   0.13582108E-01
  7178.7300       0.95072686       0.93703892       0.98416824       0.97048023       0.88874686E-02   0.31742788E-02
  7178.9800       0.95381713       0.93702728       0.98738139       0.97059147       0.39575508E-02  -0.22787716E-01
  7179.2200       0.95266606       0.93701734       0.98634812       0.97069933      -0.22785122E-02  -0.29488694E-02
  7179.4600       0.95272345       0.93700857       0.98652315       0.97080821       0.25420935E-02   0.98269862E-02
  7179.7100       0.95391169       0.93700068       0.98783378       0.97092270       0.25367111E-02  -0.91745224E-02
  7179.9500       0.95396643       0.93699428       0.98800586       0.97103364      -0.19534225E-02  -0.44122639E-02
  7180.1900       0.95297405       0.93698902       0.98713065       0.97114555       0.41882438E-03   0.23986644E-02
  7180.4400       0.95417166       0.93698474       0.98845016       0.97126317      -0.77807697E-03  -0.48030626E-02
  7180.6800       0.95259279       0.93698177       0.98698815       0.97137706      -0.19346763E-02   0.12374227E-01
  7180.9200       0.95324301       0.93697989       0.98775508       0.97149189       0.51615522E-02   0.16748852E-01
  7181.1700       0.95512195       0.93697910       0.98975541       0.97161250       0.62722611E-02  -0.72452025E-02
  7181.4100       0.95631642       0.93697943       0.99106628       0.97172922       0.16114030E-02  -0.10989020E-01
  7181.6500       0.95589542       0.93698083       0.99076151       0.97184685       0.99753141E-03   0.67849848E-02
  7181.8900       0.95679524       0.93698327       0.99177740       0.97196536       0.48681957E-02  -0.24495099E-03
  7182.1400       0.95828084       0.93698691       0.99338375       0.97208975       0.87750543E-03  -0.83499946E-02
  7182.3800       0.95722521       0.93699144       0.99244389       0.97221005       0.77669833E-03   0.16118972E-01
  7182.6200       0.95865365       0.93699699       0.99398793       0.97233120       0.86146120E-02  -0.29589355E-03
  7182.8700       0.96144637       0.93700381       0.99690091       0.97245829       0.63171049E-03  -0.23086729E-01
  7183.1100       0.95896319       0.93701137       0.99453302       0.97258113      -0.26978851E-02   0.37094088E-02
  7183.3500       0.96015139       0.93701989       0.99583635       0.97270479       0.24122267E-02   0.10357941E-01
  7183.6000       0.96014518       0.93702978       0.99594991       0.97283444       0.23775060E-02   0.21980898E-02
  7183.8400       0.96131637       0.93704024       0.99723591       0.97295972       0.34892907E-02   0.34033981E-03
  7184.0800       0.96182004       0.93705162       0.99785425       0.97308576       0.25408691E-02  -0.31833778E-02
  7184.3300       0.96256139       0.93706444       0.99871487       0.97321786       0.19294356E-02  -0.36842295E-02
  7184.5700       0.96276547       0.93707767       0.99903329       0.97334543       0.73559665E-03   0.30175171E-02
  7184.8100       0.96291448       0.93709179       0.99929650       0.97347374       0.33778438E-02   0.12995711E-01
  7185.0600       0.96442061       0.93710742        1.0009214       0.97360816       0.71034951E-02   0.33678377E-02
  7185.3000       0.96639519       0.93712331        1.0030099       0.97373791       0.50280843E-02  -0.10380515E-01
  7185.5400       0.96683409       0.93714004        1.0035625       0.97386836       0.21208481E-02  -0.70831045E-02
  7185.7900       0.96743441       0.93715835        1.0042811       0.97400496       0.15573631E-02  -0.64645874E-03
  7186.0300       0.96759720       0.93717677        1.0045573       0.97413678       0.18040833E-02  -0.30651133E-02
  7186.2800       0.96831841       0.93719680        1.0053965       0.97427478       0.55457525E-04  -0.11942673E-01
  7186.5200       0.96762437       0.93721685        1.0048155       0.97440791      -0.40478263E-02  -0.25162624E-02
  7186.7600       0.96637545       0.93723768        1.0036795       0.97454167      -0.11523484E-02   0.10247177E-01
  7187.0100       0.96705972       0.93726018        1.0044812       0.97468164       0.97329037E-03   0.49192983E-02
  7187.2500       0.96685236       0.93728256        1.0043865       0.97481663       0.12581077E-02  -0.50868143E-02
  7187.4900       0.96766361       0.93730567        1.0053102       0.97495220      -0.14683805E-02  -0.65588418E-03
  7187.7400       0.96613286       0.93733052        1.0038964       0.97509402       0.93672446E-03   0.13795492E-01
  7187.9800       0.96812261       0.93735509        1.0059983       0.97523074       0.52914104E-02   0.30580830E-02
  7188.2200       0.96867273       0.93738037        1.0066604       0.97536800       0.24046043E-02  -0.90012090E-02
  7188.4700       0.96930086       0.93740743        1.0074050       0.97551155       0.88081803E-03  -0.86637195E-02
  7188.7100       0.96910434       0.93743409        1.0073202       0.97564988      -0.18406182E-02   0.64698441E-02
  7188.9500       0.96841737       0.93746141        1.0067447       0.97578871       0.39863432E-02   0.13462437E-01
  7189.2000       0.97105764       0.93749056        1.0095010       0.97593385       0.47559758E-02  -0.74609171E-02
  7189.4400       0.97074779       0.93751918        1.0093024       0.97607367       0.33049381E-03  -0.13348167E-01
  7189.6900       0.97121959       0.93754965        1.0098898       0.97621981      -0.17846259E-02  -0.39688788E-02
  7189.9300       0.96987333       0.93757952        1.0086544       0.97636056      -0.16142568E-02   0.13340654E-01
  7190.1700       0.97044474       0.93760998        1.0093366       0.97650174       0.46188878E-02   0.77716399E-02
  7190.4200       0.97213658       0.93764233        1.0111436       0.97664926       0.21938467E-02  -0.19818728E-01
  7190.6600       0.97151973       0.93767395        1.0106371       0.97679129      -0.50922888E-02  -0.15225874E-01
  7190.9000       0.96969228       0.93770613        1.0089199       0.97693372      -0.51145730E-02   0.84550975E-02
  7191.1500       0.96901359       0.93774022        1.0083559       0.97708249      -0.94929105E-03   0.15599580E-01
  7191.3900       0.96922713       0.93777348        1.0086794       0.97722569       0.25292214E-02   0.10972046E-01
  7191.6400       0.97025290       0.93780867        1.0098195       0.97737523       0.44270117E-02  -0.92220170E-02
  7191.8800       0.97139637       0.93784296        1.0110726       0.97751914      -0.19895669E-02  -0.11510688E-01
  7192.1200       0.96929791       0.93787774        1.0090836       0.97766337      -0.10981185E-02   0.16934396E-01
  7192.3700       0.97085829       0.93791446        1.0107579       0.97781396       0.63082869E-02   0.42017502E-02
  7192.6100       0.97238897       0.93795018        1.0123977       0.97795882       0.96073915E-03  -0.19236137E-01
  7192.8600       0.97132905       0.93798786        1.0114513       0.97811003      -0.31174205E-02  -0.91501459E-02
  7193.1000       0.97086144       0.93802447        1.0110925       0.97825547      -0.35228323E-02   0.95168683E-02
  7193.3400       0.96963809       0.93806149        1.0099778       0.97840117       0.14506763E-02   0.11945817E-01
  7193.5900       0.97157227       0.93810049        1.0120251       0.97855321       0.23306178E-02  -0.12590505E-01
  7193.8300       0.97078009       0.93813833        1.0113412       0.97869941      -0.47186709E-02  -0.73786615E-04
  7194.0800       0.96926012       0.93817814        1.0099340       0.97885193       0.22944624E-02   0.13198032E-01
  7194.3200       0.97190438       0.93821673        1.0126863       0.97899856       0.17483649E-02  -0.10960256E-01
  7194.5600       0.97009934       0.93825567        1.0109891       0.97914538      -0.29664606E-02  -0.74848246E-02
  7194.8100       0.97045082       0.93829659        1.0114528       0.97929852      -0.19191991E-02  -0.17675003E-02
  7195.0500       0.96915893       0.93833621        1.0102685       0.97944570      -0.38325357E-02   0.10166998E-02
  7195.3000       0.96857287       0.93837780        1.0097943       0.97959918      -0.14210162E-02   0.18579089E-02
  7195.5400       0.96846263       0.93841803        1.0097913       0.97974666      -0.29221604E-02  -0.10433176E-02
  7195.7800       0.96717024       0.93845854        1.0086060       0.97989427      -0.19218087E-02   0.10041461E-01
  7196.0300       0.96752094       0.93850103        1.0090681       0.98004815       0.19981558E-02   0.75968316E-02
  7196.2700       0.96814933       0.93854207        1.0098033       0.98019598       0.18006388E-02  -0.23014356E-02
  7196.5200       0.96840326       0.93858509        1.0101683       0.98035006       0.87045233E-03  -0.22045920E-02
  7196.7600       0.96857585       0.93862662        1.0104474       0.98049805       0.72038867E-03   0.31698157E-02
  7197.0100       0.96875625       0.93867010        1.0107385       0.98065227       0.24236620E-02  -0.91989525E-02
  7197.2500       0.96976345       0.93871205        1.0118518       0.98080037      -0.37870981E-02  -0.20449416E-01
  7197.4900       0.96693844       0.93875419        1.0091328       0.98094850      -0.73920575E-02   0.66852080E-02
  7197.7400       0.96614134       0.93879828        1.0084460       0.98110282      -0.51134617E-03   0.26464816E-01
  7197.9800       0.96668788       0.93884076        1.0090982       0.98125098       0.55757025E-02   0.13283456E-02
  7198.2300       0.96887343       0.93888517        1.0113936       0.98140530       0.13954317E-03  -0.20825741E-01
  7198.4700       0.96675626       0.93892794        1.0093818       0.98155343      -0.46289107E-02  -0.40669598E-02
  7198.7200       0.96660527       0.93897262        1.0093404       0.98170770      -0.18532671E-02   0.87456410E-02
  7198.9600       0.96584816       0.93901563        1.0086883       0.98185574      -0.34354658E-03  -0.27673540E-02
  7199.2000       0.96644037       0.93905873        1.0093854       0.98200373      -0.31815970E-02  -0.11915541E-01
  7199.4500       0.96428917       0.93910371        1.0073433       0.98215780      -0.61821619E-02   0.33406163E-02
  7199.6900       0.96341111       0.93914695        1.0065698       0.98230562      -0.15446950E-02   0.16742231E-01
  7199.9400       0.96353227       0.93919206        1.0067998       0.98245948       0.20215313E-02   0.40153392E-02
  7200.1800       0.96440166       0.93923541        1.0077734       0.98260708       0.42282120E-03  -0.71996676E-02
  7200.4300       0.96373945       0.93928059        1.0072196       0.98276069      -0.15063058E-02   0.42325449E-02
  7200.6700       0.96366357       0.93932397        1.0072477       0.98290801       0.24967682E-02  -0.32992114E-03
  7200.9200       0.96496287       0.93936916        1.0086551       0.98306131      -0.16679672E-02  -0.13191706E-01
  7201.1600       0.96284626       0.93941254        1.0066421       0.98320830      -0.39671678E-02  -0.15886104E-02
  7201.4100       0.96301896       0.93945769        1.0069226       0.98336122      -0.24463863E-02   0.10296717E-01
  7201.6500       0.96164753       0.93950099        1.0056544       0.98350782       0.10782235E-02   0.84340511E-02
  7201.8900       0.96353651       0.93954424        1.0076466       0.98365421       0.16019583E-02  -0.10495801E-01
  7202.1400       0.96243249       0.93958921        1.0066498       0.98380647      -0.40647192E-02  -0.94525880E-02
  7202.3800       0.96154479       0.93963231        1.0058649       0.98395240      -0.30298099E-02   0.25045408E-02
  7202.6300       0.96094789       0.93967710        1.0053750       0.98410414      -0.28374941E-02   0.70919807E-02
  7202.8700       0.96015442       0.93971999        1.0046840       0.98424954       0.44526067E-03   0.96523671E-02
  7203.1200       0.96116606       0.93976454        1.0058023       0.98440071       0.18921657E-02  -0.39049248E-02
  7203.3600       0.96108158       0.93980717        1.0058200       0.98454553      -0.14681525E-02  -0.15198109E-02
  7203.6100       0.96044667       0.93985141        1.0052914       0.98469607       0.11474584E-02  -0.35962482E-02
  7203.8500       0.96164384       0.93989373        1.0065904       0.98484026      -0.32303141E-02  -0.10709526E-01
  7204.1000       0.95886382       0.93993761        1.0039164       0.98499011      -0.41002093E-02   0.70484398E-02
  7204.3400       0.95963473       0.93997955        1.0047889       0.98513361       0.22342141E-03   0.57366085E-02
  7204.5900       0.95897329       0.94002303        1.0042330       0.98528271      -0.12892711E-02  -0.78953060E-02
  7204.8300       0.95900299       0.94006454        1.0043640       0.98542547      -0.36452785E-02   0.29676167E-02
  7205.0800       0.95718711       0.94010754        1.0026534       0.98557377       0.16486109E-03   0.96600977E-02
  7205.3200       0.95908377       0.94014857        1.0046510       0.98571573       0.10881694E-02  -0.71015867E-02
  7205.5700       0.95772031       0.94019104        1.0033925       0.98586317      -0.33149164E-02  -0.48814393E-02
  7205.8100       0.95745946       0.94023153        1.0032323       0.98600427      -0.13037359E-02  -0.73668137E-02
  7206.0600       0.95708148       0.94027341        1.0029589       0.98615079      -0.69246551E-02  -0.55592763E-02
  7206.3000       0.95406638       0.94031332        1.0000441       0.98629099      -0.40277813E-02   0.32609811E-01
  7206.5500       0.95510787       0.94035455        1.0011899       0.98643654       0.90541523E-02   0.14549755E-01
  7206.7900       0.95850292       0.94039381        1.0046849       0.98657577       0.31015985E-02  -0.32302765E-01
  7207.0300       0.95659663       0.94043273        1.0028785       0.98671451      -0.64511751E-02  -0.12384894E-01
  7207.2800       0.95534184       0.94047290        1.0017275       0.98685850      -0.29669996E-02   0.43270656E-02
  7207.5200       0.95514280       0.94051109        1.0016280       0.98699619      -0.43309130E-02  -0.54828658E-02
  7207.7700       0.95321970       0.94055047       0.99980836       0.98713906      -0.56536039E-02   0.74628159E-02
  7208.0100       0.95237254       0.94058787       0.99906039       0.98727566      -0.67413321E-03   0.15362774E-01
  7208.2600       0.95288937       0.94062641       0.99968038       0.98741735       0.18741555E-02   0.50211423E-02
  7208.5100       0.95330961       0.94066449        1.0002036       0.98755842       0.18364380E-02  -0.71708041E-02
  7208.7500       0.95378922       0.94070062        1.0007819       0.98769327      -0.16395386E-02  -0.12919448E-01
  7209.0000       0.95250624       0.94073782       0.99960161       0.98783312      -0.44940913E-02  -0.43453003E-02
  7209.2400       0.95158712       0.94077311       0.99878088       0.98796681      -0.37687357E-02   0.12917992E-01
  7209.4900       0.95065956       0.94080943       0.99795565       0.98810545       0.18357247E-02   0.37543543E-02
  7209.7300       0.95248662       0.94084387       0.99988079       0.98823798      -0.19291021E-02  -0.19153280E-01
  7209.9800       0.94971430       0.94087932       0.99721047       0.98837542      -0.75493823E-02   0.43089423E-02
  7210.2200       0.94878743       0.94091293       0.99638135       0.98850679       0.18227965E-03   0.22800455E-01
  7210.4700       0.94980362       0.94094750       0.99749921       0.98864303       0.36228407E-02  -0.14205570E-02
  7210.7100       0.95056262       0.94098028       0.99835566       0.98877325      -0.51379330E-03  -0.13262166E-01
  7210.9600       0.94955186       0.94101398       0.99744624       0.98890830      -0.28756207E-02   0.22470343E-02
  7211.2000       0.94915357       0.94104593       0.99714507       0.98903737       0.58725350E-03   0.69999067E-02
  7211.4500       0.94983961       0.94107878       0.99793213       0.98917123       0.55433354E-03  -0.11726439E-01
  7211.6900       0.94942519       0.94110991       0.99761451       0.98929916      -0.51587017E-02  -0.11805549E-01
  7211.9400       0.94731185       0.94114190       0.99560185       0.98943184      -0.52303855E-02   0.10146530E-01
  7212.1800       0.94686230       0.94117221       0.99524880       0.98955864      -0.18690191E-03   0.14004398E-01
  7212.4300       0.94722027       0.94120335       0.99570711       0.98969013       0.16317696E-02   0.11574982E-02
  7212.6700       0.94766187       0.94123285       0.99624489       0.98981580       0.38027220E-03  -0.13396923E-01
  7212.9200       0.94740660       0.94126315       0.99608964       0.98994612      -0.49327227E-02  -0.73842635E-02
  7213.1600       0.94524483       0.94129183       0.99402373       0.99007066      -0.32380169E-02   0.14998595E-01
  7213.4100       0.94581997       0.94132129       0.99469856       0.99019982       0.24165886E-02   0.64371010E-02
  7213.6600       0.94645313       0.94135033       0.99543124       0.99032837      -0.19466409E-04  -0.75481132E-02
  7213.9000       0.94581043       0.94137780       0.99488392       0.99045123      -0.12819868E-02  -0.11427651E-02
  7214.1500       0.94582495       0.94140601       0.99499763       0.99057862      -0.57942129E-03   0.75099274E-03
  7214.3900       0.94552652       0.94143268       0.99479426       0.99070036      -0.91400039E-03  -0.53174428E-02
  7214.6400       0.94537709       0.94146006       0.99474370       0.99082660      -0.31849683E-02  -0.11305605E-01
  7214.8800       0.94396588       0.94148595       0.99342724       0.99094723      -0.64537466E-02   0.46647549E-02
  7215.1300       0.94221476       0.94151250       0.99177464       0.99107232      -0.89923840E-03   0.17768871E-01
  7215.3700       0.94352526       0.94153760       0.99317957       0.99119185       0.22530000E-02   0.29954308E-02
  7215.6200       0.94331873       0.94156334       0.99307124       0.99131579       0.56852268E-03  -0.46774752E-02
  7215.8700       0.94380952       0.94158867       0.99366006       0.99143915      -0.85737542E-04  -0.72106588E-02
  7216.1100       0.94327672       0.94161259       0.99322121       0.99155702      -0.29647001E-02  -0.48801946E-02
  7216.3600       0.94235681       0.94163711       0.99239901       0.99167924      -0.24770329E-02   0.27088412E-02
  7216.6000       0.94206297       0.94166026       0.99219881       0.99179603      -0.16373679E-02   0.10810933E-01
  7216.8500       0.94155450       0.94168397       0.99178771       0.99191711       0.28203242E-02   0.18823235E-01
  7217.0900       0.94344493       0.94170635       0.99377146       0.99203281       0.75860170E-02  -0.71895271E-02
  7217.3400       0.94527165       0.94172926       0.99569522       0.99215277      -0.70254412E-03  -0.25983680E-01
  7217.5800       0.94310068       0.94175088       0.99361725       0.99226738      -0.51459861E-02  -0.57788212E-02
  7217.8300       0.94275012       0.94177300       0.99336340       0.99238622      -0.35341665E-02   0.35822130E-02
  7218.0800       0.94133360       0.94179472       0.99204342       0.99250448      -0.33548796E-02   0.52323245E-02
  7218.3200       0.94110623       0.94181519       0.99190858       0.99261747      -0.97032752E-03   0.14202601E-02
  7218.5700       0.94085814       0.94183612       0.99175670       0.99273462      -0.26589522E-02   0.16495248E-02
  7218.8100       0.93980334       0.94185584       0.99079411       0.99284654      -0.16206036E-03   0.82115788E-02
  7219.0600       0.94077873       0.94187599       0.99186538       0.99296258       0.13647214E-02  -0.90395139E-02
  7219.3100       0.94048570       0.94189575       0.99166807       0.99307805      -0.46818173E-02   0.20525541E-02
  7219.5500       0.93848464       0.94191434       0.98975873       0.99318837       0.23704729E-02   0.45046376E-02
  7219.8000       0.94164723       0.94193332       0.99301671       0.99330274      -0.24745449E-02  -0.12155840E-01
  7220.0400       0.93727211       0.94195118       0.98873300       0.99341200      -0.35858886E-02   0.11816408E-01
  7220.2900       0.93989015       0.94196939       0.99144609       0.99352527       0.33154948E-02  -0.74382523E-02
  7220.5300       0.93889670       0.94198651       0.99054374       0.99363349      -0.72306322E-02  -0.10994279E-01
  7220.7800       0.93634714       0.94200396       0.98808890       0.99374566      -0.20717019E-02   0.19915596E-01
  7221.0300       0.93786085       0.94202103       0.98969718       0.99385728       0.27271659E-02  -0.25158277E-02
  7221.2700       0.93768345       0.94203705       0.98961039       0.99396392      -0.33044575E-02  -0.10810498E-01
  7221.5200       0.93624167       0.94205336       0.98826283       0.99407446      -0.25699779E-02  -0.47423885E-02
  7221.7600       0.93642416       0.94206865       0.98853562       0.99418005      -0.56282279E-02   0.56486248E-02
  7222.0100       0.93348384       0.94208421       0.98568920       0.99428951       0.19784826E-03   0.23459146E-01
  7222.2600       0.93652308       0.94209939       0.98882217       0.99439841       0.61013450E-02  -0.10602044E-02
  7222.5000       0.93647350       0.94211361       0.98886241       0.99450245      -0.32165191E-03  -0.68060144E-02
  7222.7500       0.93636548       0.94212804       0.98884778       0.99461029       0.27663979E-02  -0.21290520E-02
  7222.9900       0.93782903       0.94214155       0.99040084       0.99471329      -0.13648874E-02  -0.19824101E-01
  7223.2400       0.93569668       0.94215525       0.98836156       0.99482006      -0.69474116E-02  -0.31037753E-02
  7223.4900       0.93435533       0.94216857       0.98711310       0.99492629      -0.29167750E-02   0.12033300E-01
  7223.7300       0.93426746       0.94218101       0.98711427       0.99502775      -0.10510946E-02   0.16926941E-01
  7223.9800       0.93384029       0.94219361       0.98677966       0.99513292       0.53774258E-02   0.10633542E-01
  7224.2300       0.93695617       0.94220584       0.98998795       0.99523755       0.42656762E-02  -0.20205372E-01
  7224.4700       0.93593047       0.94221723       0.98905079       0.99533748      -0.45232065E-02  -0.19493421E-01
  7224.7200       0.93473980       0.94222873       0.98795220       0.99544106      -0.52861000E-02  -0.65267836E-02
  7224.9600       0.93334028       0.94223943       0.98664091       0.99553999      -0.77213305E-02   0.17598834E-02
  7225.2100       0.93095635       0.94225022       0.98434872       0.99564252      -0.44237571E-02   0.21886810E-01
  7225.4600       0.93112840       0.94226064       0.98461234       0.99574451       0.32220745E-02   0.15040228E-01
  7225.7000       0.93253517       0.94227031       0.98610686       0.99584193       0.29459547E-02  -0.67587552E-02
  7225.9500       0.93257192       0.94228002       0.98623485       0.99594289      -0.89715554E-04  -0.43961933E-02
  7226.2000       0.93249031       0.94228938       0.98624432       0.99604332       0.74785804E-03   0.51900474E-02
  7226.4400       0.93293837       0.94229802       0.98677965       0.99613923       0.24534077E-02  -0.74539050E-02
  7226.6900       0.93369248       0.94230667       0.98762451       0.99623863      -0.29045554E-02  -0.96898566E-02
  7226.9300       0.93151514       0.94231464       0.98553412       0.99633356      -0.22946221E-02   0.38906866E-02
  7227.1800       0.93256811       0.94232260       0.98667751       0.99643193      -0.99811895E-03   0.21067600E-02
  7227.4300       0.93101608       0.94233021       0.98521572       0.99652978      -0.12412421E-02   0.58237298E-02
  7227.6700       0.93195991       0.94233717       0.98624603       0.99662323       0.18555087E-02   0.30356688E-02
  7227.9200       0.93192528       0.94234409       0.98630132       0.99672006       0.24623562E-03  -0.37983767E-02
  7228.1700       0.93208302       0.94235066       0.98654881       0.99681638      -0.43679683E-04  -0.72934518E-02
  7228.4100       0.93190388       0.94235663       0.98645566       0.99690835      -0.33275558E-02  -0.61548228E-02
  7228.6600       0.93045252       0.94236252       0.98509372       0.99700366      -0.30595429E-02   0.10654488E-01
  7228.9100       0.93037410       0.94236806       0.98510456       0.99709844       0.19996881E-02   0.12319784E-01
  7229.1500       0.93143237       0.94237305       0.98624834       0.99718896       0.29771514E-02  -0.73448848E-02
  7229.4000       0.93183291       0.94237792       0.98673780       0.99728275      -0.15993055E-02  -0.21004867E-01
  7229.6500       0.93063272       0.94238244       0.98562636       0.99737602      -0.75252820E-02   0.26552897E-02
  7229.8900       0.92814552       0.94238647       0.98322421       0.99746509      -0.29821352E-03   0.22784268E-01
  7230.1400       0.93048659       0.94239033       0.98565370       0.99755737       0.36390093E-02  -0.79376157E-02
  7230.3900       0.92996502       0.94239385       0.98522038       0.99764915      -0.42670214E-02  -0.87206560E-02
  7230.6300       0.92839575       0.94239692       0.98373567       0.99773677      -0.63411217E-03   0.12820963E-01
  7230.8800       0.92965431       0.94239978       0.98508216       0.99782756       0.20152504E-02  -0.29463909E-02
  7231.1300       0.92940338       0.94240231       0.98491898       0.99791785      -0.21073076E-02   0.91488607E-03
  7231.3700       0.92862173       0.94240443       0.98422141       0.99800405       0.24635445E-02   0.10591898E-01
  7231.6200       0.93061051       0.94240631       0.98629762       0.99809335       0.30827226E-02  -0.18346611E-01
  7231.8700       0.93016309       0.94240786       0.98593746       0.99818216      -0.67097610E-02  -0.11534918E-01
  7232.1100       0.92732273       0.94240904       0.98318070       0.99826695      -0.25693871E-02   0.56935076E-02
  7233.1000       0.92700274       0.94241074       0.98320396       0.99861188       0.29325343E-03   0.77571622E-03
  7235.3200       0.92826407       0.94239631       0.98522537       0.99935755      -0.79338004E-04  -0.12624566E-03
  7237.6700       0.92664017       0.94235442       0.98439160        1.0001058      -0.28368925E-03   0.84016820E-04
  7239.8900       0.92696761       0.94229067       0.98545180        1.0007748       0.30461886E-03   0.23392066E-03
  7242.2400       0.92803228       0.94219864       0.98727767        1.0014440       0.78532817E-03   0.43282779E-04
  7244.6000       0.93066651       0.94208192       0.99066136        1.0020767       0.50848075E-03  -0.17937805E-03
  7246.9500       0.93042722       0.94194258       0.99115346        1.0026688      -0.59542454E-04   0.12074681E-04
  7249.3000       0.93038666       0.94178130       0.99182940        1.0032240       0.56523175E-03   0.21927618E-03
  7251.6600       0.93308946       0.94159834       0.99523678        1.0037456       0.97324836E-03   0.57672075E-04
  7254.0200       0.93498039       0.94139548       0.99781729        1.0042323       0.83744395E-03  -0.12874735E-03
  7256.5000       0.93714269       0.94116206        1.0006881        1.0047074       0.35011119E-03  -0.78073364E-04
  7258.9900       0.93672044       0.94090812        1.0009605        1.0051481       0.44941933E-03   0.75624837E-04
  7261.4700       0.93937631       0.94063700        1.0042916        1.0055522       0.72596664E-03   0.25555615E-04
  7263.9600       0.94032850       0.94034781        1.0059051        1.0059243       0.57643073E-03  -0.30006911E-04
  7266.4500       0.94224693       0.94004293        1.0084681        1.0062641       0.57653222E-03  -0.66565719E-04
  7271.5700       0.94471591       0.93937225        1.0122101        1.0068664       0.69865611E-04  -0.14601649E-03
  7274.0600       0.94277861       0.93902751        1.0108664        1.0071152      -0.53465327E-03   0.80521007E-04
  7276.6900       0.94197848       0.93865213        1.0106750        1.0073486       0.48213317E-03   0.15469128E-03
  7279.3100       0.94530981       0.93826819        1.0145943        1.0075526       0.27747598E-03  -0.15944430E-03
  7281.9400       0.94343523       0.93787430        1.0132913        1.0077304      -0.35494942E-03  -0.13312028E-03
  7284.5700       0.94344277       0.93747345        1.0138519        1.0078825      -0.42273669E-03   0.26221379E-04
  7287.3200       0.94116091       0.93704854        1.0121283        1.0080158      -0.21387840E-03   0.64351010E-04
  7289.9600       0.94228997       0.93663668        1.0137741        1.0081207      -0.75884744E-04  -0.13744336E-04
  7292.7200       0.94075113       0.93620370        1.0127554        1.0082079      -0.28809781E-03  -0.62909354E-04
  7295.4800       0.94069967       0.93577002        1.0132036        1.0082739      -0.42314438E-03   0.31399524E-04
  7298.2500       0.93841114       0.93533586        1.0113959        1.0083206      -0.11445845E-03   0.85398790E-04
  7301.0100       0.94006671       0.93490614        1.0135101        1.0083494       0.49110935E-04  -0.42868350E-04
  7303.7800       0.93868273       0.93447954        1.0125656        1.0083624      -0.35152042E-03  -0.14131191E-03
  7306.6800       0.93807359       0.93403992        1.0123946        1.0083608      -0.75212761E-03  -0.79723070E-04
  7309.4500       0.93441816       0.93362854        1.0091364        1.0083467      -0.80355023E-03   0.83478569E-04
  7312.3600       0.93350943       0.93320738        1.0086227        1.0083206      -0.27796934E-03   0.68255573E-04
  7315.2600       0.93280316       0.93280093        1.0082875        1.0082852      -0.40698535E-03  -0.27996361E-04
  7318.1700       0.93114484       0.93240846        1.0069787        1.0082422      -0.44062820E-03  -0.25819046E-05
  7321.0800       0.93023871       0.93203318        1.0063992        1.0081937      -0.42201203E-03   0.73554213E-05
  7323.9900       0.92868873       0.93167544        1.0051532        1.0081398      -0.39781964E-03   0.97243043E-04
  7327.0300       0.92787168       0.93132029        1.0046292        1.0080778       0.15658407E-03   0.10211337E-03
  7329.9500       0.92962197       0.93099693        1.0066376        1.0080125       0.21077602E-03  -0.69656381E-04
  7332.9900       0.92912790       0.93067864        1.0063878        1.0079385      -0.25856796E-03  -0.32699912E-04
  7336.0400       0.92804730       0.93037799        1.0055273        1.0078579       0.11633551E-04   0.20387140E-04
  7339.0900       0.92919887       0.93009592        1.0068739        1.0077709      -0.13420641E-03  -0.46881635E-04
  7342.1500       0.92722729       0.92983146        1.0050728        1.0076769      -0.27481324E-03   0.65123527E-04
  7345.2000       0.92751976       0.92958621        1.0055101        1.0075765       0.26369834E-03   0.56852485E-04
  7348.3900       0.92887277       0.92934915        1.0069877        1.0074640       0.79946265E-04  -0.94085508E-04
  7351.4500       0.92801942       0.92914028        1.0062282        1.0073490      -0.32433609E-03  -0.44406183E-04
  7354.6500       0.92684243       0.92894113        1.0051223        1.0072209      -0.19803644E-03   0.47461082E-04
  7357.8400       0.92675397       0.92876205        1.0050773        1.0070853      -0.21059770E-04   0.35307373E-04
  7361.0400       0.92670786       0.92860176        1.0050472        1.0069410       0.27577672E-04  -0.38369414E-05
  7364.2400       0.92693047       0.92846070        1.0052582        1.0067884      -0.45616195E-04   0.38448531E-04
  7367.4400       0.92641591       0.92833872        1.0047045        1.0066273       0.27364827E-03   0.38236331E-04
  7370.7800       0.92872013       0.92823157        1.0069385        1.0064499       0.20444941E-03  -0.52027925E-04
  7373.9900       0.92775506       0.92814784        1.0058775        1.0062703      -0.67134641E-04  -0.32724657E-04
  7377.3300       0.92828040       0.92808059        1.0062737        1.0060738      -0.98970910E-05   0.17935912E-04
  7380.6800       0.92768884       0.92803330        1.0055223        1.0058667       0.52856614E-04   0.58809648E-04
  7384.0200       0.92863401       0.92800608        1.0062780        1.0056501       0.38353945E-03  -0.13100914E-04
  7387.3700       0.93025472       0.92799859        1.0076786        1.0054224      -0.34788499E-04  -0.75198726E-04
  7390.7300       0.92840058       0.92801082        1.0055732        1.0051834      -0.12104400E-03   0.42971655E-04
  7394.0900       0.92944131       0.92804265        1.0063324        1.0049336       0.25398102E-03   0.24305571E-04
  7397.5800       0.93014035       0.92809625        1.0067067        1.0046625       0.45449164E-04  -0.45474385E-04
  7400.9400       0.92975263       0.92816746        1.0059753        1.0043901      -0.57518513E-04  -0.63199268E-05
  7404.4400       0.92974577       0.92826189        1.0055782        1.0040943       0.20944663E-05  -0.75905272E-05
  7407.9400       0.92976730       0.92837677        1.0051764        1.0037859      -0.11065220E-03  -0.46059217E-05
  7411.4400       0.92897120       0.92851190        1.0039241        1.0034647      -0.30146986E-04   0.38578633E-04
  7414.9500       0.92955597       0.92866755        1.0040181        1.0031296       0.15978402E-03  -0.11863474E-06
  7418.5900       0.93011366       0.92885003        1.0040318        1.0027681      -0.30995224E-04  -0.13841239E-04
  7422.1000       0.92933435       0.92904611        1.0026942        1.0024059       0.60819159E-04   0.19689611E-04
  7425.7500       0.93054912       0.92927072        1.0032931        1.0020147       0.10998239E-03  -0.22841287E-04
  7429.2700       0.93012292       0.92950711        1.0022391        1.0016232      -0.10295287E-03  -0.14525315E-04
  7432.9200       0.92981095       0.92977253        1.0012408        1.0012023       0.58358762E-05   0.24833661E-04
  7436.5800       0.93016558       0.93005919        1.0008712        1.0007647       0.78581199E-04   0.37351168E-05
  7440.2400       0.93038617       0.93036615        1.0003314        1.0003113       0.33176931E-04   0.16999235E-04
  7443.9100       0.93040877       0.93069411       0.99955537       0.99984064       0.20318559E-03   0.27552061E-04
  7447.7100       0.93190396       0.93105470        1.0001854       0.99933606       0.23899083E-03  -0.26170954E-04
  7451.3800       0.93219403       0.93142301       0.99960296       0.99883187       0.76885642E-05  -0.36060149E-04
  7455.1900       0.93196147       0.93182595       0.99842623       0.99829064      -0.30739085E-04  -0.79405838E-05
  7458.8800       0.93196349       0.93223594       0.99747654       0.99774893      -0.51865814E-04   0.53726331E-05
  7462.6900       0.93157248       0.93267940       0.99606438       0.99717123       0.95556636E-05   0.10950095E-04
  7466.5100       0.93203640       0.93314430       0.99546520       0.99657303       0.31683414E-04   0.12194091E-04
  7470.3400       0.93181486       0.93363051       0.99413832       0.99595391       0.10284046E-03   0.17242829E-04
  7474.1700       0.93282416       0.93413660       0.99400275       0.99531513       0.16376348E-03  -0.10450115E-04
  7478.1300       0.93309058       0.93468062       0.99304390       0.99463388       0.21434061E-04  -0.42190506E-05
  7481.9700       0.93299134       0.93522838       0.99171617       0.99395314       0.13085489E-03   0.45000748E-04
  7485.9400       0.93411255       0.93581566       0.99152554       0.99322858       0.37288991E-03   0.27472946E-04
  7489.9200       0.93595582       0.93642589       0.99201103       0.99248104       0.34926481E-03  -0.35748218E-04
  7493.7700       0.93684730       0.93703671       0.99154848       0.99173783       0.92981358E-04  -0.21780386E-04
  7497.7600       0.93668479       0.93769110       0.98994057       0.99094682       0.17850658E-03   0.29277320E-04
  7501.7500       0.93827178       0.93836729       0.99003927       0.99013471       0.32661437E-03   0.16026673E-04
  7505.8800       0.93933690       0.93909023       0.98951870       0.98927196       0.30864317E-03  -0.33759999E-04
  7509.8800       0.94078105       0.93981281       0.98938327       0.98841496       0.52145586E-04  -0.29157536E-04
  7513.8900       0.93975459       0.94055938       0.98673002       0.98753474       0.75091305E-04   0.34038179E-04
  7518.0300       0.94139304       0.94135352       0.98664349       0.98660391       0.32955675E-03   0.11914299E-04
  7526.3300       0.94385427       0.94301746       0.98550734       0.98467046       0.22330518E-03  -0.58802337E-05
  7530.3500       0.94414416       0.94385795       0.98398817       0.98370189       0.25711227E-03   0.12947058E-04
  7534.5100       0.94595745       0.94475157       0.98388356       0.98267761       0.32921212E-03  -0.46581305E-05
  7538.8100       0.94692930       0.94570083       0.98282396       0.98159543       0.21770448E-03  -0.88550991E-05
  7542.9900       0.94780358       0.94664860       0.98167575       0.98052069       0.25412088E-03  -0.96867449E-05
  7547.1600       0.94905120       0.94761872       0.98085880       0.97942625       0.13682016E-03  -0.92168934E-06
  7551.4800       0.94896519       0.94864976       0.97858455       0.97826906       0.24629573E-03   0.10250816E-04
  7555.6600       0.95114472       0.94967267       0.97859890       0.97712679       0.22395210E-03  -0.18824308E-04
  7559.9900       0.95087102       0.95075859       0.97603269       0.97592019       0.86100870E-04   0.56781583E-05
  7564.3200       0.95189035       0.95187134       0.97470901       0.97468993       0.27312495E-03   0.33659430E-04
  7568.6600       0.95323901       0.95301368       0.97365855       0.97343315       0.37792813E-03   0.37812166E-05
  7577.3500       0.95681476       0.95538261       0.97227800       0.97084579       0.32239420E-03  -0.70908339E-05
  7581.8300       0.95748494       0.95664659       0.97031358       0.96947515       0.28454185E-03  -0.89977419E-05
  7586.1900       0.95933011       0.95790471       0.96954277       0.96811731       0.24285416E-03  -0.17600027E-04
  7590.6900       0.95963663       0.95923230       0.96709563       0.96669123       0.12860561E-03   0.34422181E-05
  7595.0600       0.96047084       0.96054988       0.96520350       0.96528248       0.27338664E-03   0.11333032E-04
  7599.5700       0.96206431       0.96193904       0.96392935       0.96380402       0.22924293E-03   0.87054349E-05
  7604.0800       0.96253861       0.96335812       0.96148124       0.96230069       0.35190966E-03   0.20532199E-04
  7608.6100       0.96524557       0.96481372       0.96119766       0.96076574       0.41485401E-03  -0.31395179E-05
  7613.1300       0.96629304       0.96629637       0.95920609       0.95920936       0.32349702E-03  -0.15287515E-04
  7617.6600       0.96817322       0.96781275       0.95798529       0.95762475       0.27650200E-03  -0.10136684E-04
  7622.3400       0.96883962       0.96941143       0.95538996       0.95596171       0.23013817E-03   0.80794230E-05
  7626.8800       0.97029509       0.97099356       0.95362490       0.95432330       0.35099428E-03   0.20783952E-04
  7631.5700       0.97207930       0.97266040       0.95202385       0.95260488       0.42197404E-03  -0.12883504E-05
  7636.1200       0.97419413       0.97430908       0.95079785       0.95091274       0.33908992E-03  -0.14192249E-04
  7640.8200       0.97521588       0.97604490       0.94831007       0.94913902       0.29069574E-03   0.78479458E-06
  7645.5300       0.97692958       0.97781793       0.94644706       0.94733534       0.34647484E-03  -0.15098673E-05
  7650.2400       0.97847967       0.97962461       0.94436069       0.94550556       0.27647279E-03   0.15131513E-05
  7654.9600       0.97953672       0.98146901       0.94171360       0.94364582       0.36074385E-03   0.27650546E-04
  7659.6800       0.98188509       0.98334741       0.94029781       0.94176006       0.53749394E-03   0.13184910E-04
  7664.4100       0.98461603       0.98526403       0.93919641       0.93984433       0.48534125E-03  -0.18854695E-04
  7669.2800       0.98654437       0.98727328       0.93711599       0.93784483       0.35648887E-03  -0.59746247E-05
  7674.0200       0.98804189       0.98926400       0.93465041       0.93587246       0.42792511E-03   0.15820731E-04
  7678.9100       0.99066529       0.99135420       0.93312186       0.93381070       0.50884252E-03  -0.49327505E-05
  7683.6600       0.99294713       0.99342023       0.93130895       0.93178198       0.38037339E-03  -0.60730099E-05
  7688.5600       0.99433589       0.99558857       0.92840995       0.92966256       0.45023797E-03   0.14767792E-04
  7693.4700       0.99736397       0.99779931       0.92707664       0.92751191       0.52524544E-03   0.68240673E-06
  7698.3800       0.99949380        1.0000483       0.92478013       0.92533456       0.45693921E-03  -0.15628263E-05
  7703.3000        1.0018557        1.0023405       0.92264151       0.92312623       0.50988285E-03   0.33983750E-05
  7713.3000        1.0071013        1.0071194       0.91853875       0.91855680       0.50764296E-03   0.64960188E-05
  7718.2400        1.0094399        1.0095400       0.91615987       0.91625992       0.60693337E-03   0.56824890E-05
  7723.3300        1.0131888        1.0120758       0.91497929       0.91386626       0.56463832E-03  -0.13864955E-04
  7728.2800        1.0151088        1.0145828       0.91203847       0.91151235       0.46772923E-03  -0.27309761E-05
  7733.3800        1.0178895        1.0172081       0.90974190       0.90906045       0.53719201E-03   0.13204067E-04
  7738.4900        1.0205936        1.0198819       0.90728855       0.90657686       0.60254275E-03   0.83704952E-05
  7743.4600        1.0239631        1.0225245       0.90557447       0.90413576       0.62156661E-03  -0.10763064E-04
  7748.5800        1.0268652        1.0252902       0.90316990       0.90159487       0.49394344E-03  -0.15071142E-04
  7753.8500        1.0290952        1.0281833       0.89986405       0.89895214       0.46497744E-03   0.51301155E-05
  7758.9900        1.0317056        1.0310507       0.89700308       0.89634809       0.54734794E-03   0.69416498E-05
  7764.1300        1.0347219        1.0339633       0.89447685       0.89371813       0.53633760E-03   0.47922742E-05
  7769.2800        1.0372245        1.0369272       0.89135472       0.89105732       0.59666044E-03   0.88100620E-05
  7774.5800        1.0409570        1.0400254       0.88922408       0.88829241       0.62840275E-03  -0.95581240E-05
  7779.7400        1.0437976        1.0430889       0.88628368       0.88557487       0.49668247E-03  -0.13006166E-04
  7785.0600        1.0461622        1.0462962       0.88261300       0.88274685       0.49209814E-03   0.61096214E-05
  7790.3800        1.0490335        1.0495534       0.87937268       0.87989249       0.56168884E-03   0.15571043E-04
  7795.5700        1.0520656        1.0527794       0.87636904       0.87708278       0.65574980E-03   0.18931457E-04
  7800.9000        1.0559320        1.0561425       0.87396139       0.87417177       0.76084777E-03   0.44042176E-05
  7806.2500        1.0601915        1.0595694       0.87184627       0.87122413       0.70278685E-03  -0.12420249E-04
  7811.7500        1.0635572        1.0631462       0.86857839       0.86816730       0.62608807E-03  -0.66793878E-05
  7817.1100        1.0669908        1.0666849       0.86546868       0.86516270       0.63024870E-03   0.31486587E-05
  7822.4700        1.0703135        1.0702759       0.86217080       0.86213315       0.65984169E-03   0.61612976E-05
  7827.8500        1.0740775        1.0739335       0.85921159       0.85906750       0.69642103E-03   0.38577286E-05
  7833.3800        1.0779115        1.0777486       0.85605370       0.85589081       0.70192951E-03  -0.17163403E-05
  7838.7700        1.0817425        1.0815219       0.85299062       0.85276990       0.67767860E-03  -0.69592987E-06
  7844.3100        1.0853185        1.0854567       0.84939900       0.84953712       0.69432299E-03   0.41014451E-05
  7849.8700        1.0894495        1.0894636       0.84625344       0.84626749       0.72320464E-03   0.76556283E-05
  7855.2800        1.0932520        1.0934185       0.84289574       0.84306217       0.77830524E-03   0.89037567E-05
  7860.8500        1.0979953        1.0975485       0.84018465       0.83973775       0.82096789E-03  -0.78670394E-06
  7872.0100        1.1069868        1.1060019       0.83398918       0.83300412       0.76514368E-03  -0.72833352E-05
  7877.7500        1.1109262        1.1104433       0.82998668       0.82950362       0.69787952E-03  -0.43017031E-05
  7883.3500        1.1149008        1.1148380       0.82612750       0.82606464       0.71636236E-03  -0.62455092E-06
  7888.9700        1.1189638        1.1193101       0.82224388       0.82259003       0.69087206E-03   0.14835139E-05
  7894.5800        1.1226593        1.1238360       0.81792196       0.81909862       0.73302223E-03   0.50448418E-05
  7900.3600        1.1273130        1.1285642       0.81422663       0.81547775       0.74833281E-03   0.40073634E-05
  7905.9900        1.1311978        1.1332334       0.80989257       0.81192812       0.77874624E-03   0.10195937E-04
  7911.7900        1.1362140        1.1381098       0.80635249       0.80824821       0.86487236E-03   0.14849331E-04
